# Pbox  30000.00  34 4095  0.0     0    1.0000 1.56036     6
# VJ4.2  pw (us)  pwr  pwrf  dres  dmf  dcyc   B1max (kHz)  Stype
# ---------------------------------------------------------------
# Pxsim 0.0300000 1433.9682 0.000 218023.2 0.0000000 0.0000000 0.00
# data: pw (s) B1max (Hz) status sw (Hz) T1 (s)   T2 (s) RDC (Hz)
# ---------------------------------------------------------------
# Pbox.inp data :
# ~~~~~~~~~~~~~~~~~~~~~~~~~~~Waves~~~~~~~~~~~~~~~~~~~~~~~~~~~~~~~~~~
#   shape   bw(/pw)   ofs  st  ph  fla  trev  d1  d2   d0   wrp  php
# ~~~~~~~~~~~~~~~~~~~~~~~~~~~~~~~~~~~~~~~~~~~~~~~~~~~~~~~~~~~~~~~~~~
# { wurst2i 36337.2/0.0300000 }
#
# type      = r          mod       = n          dres      = n         
# steps     = n          stepsize  = 10.00      attn      = i         
# refofs    = n          wrap      = n          sfrq      = n         
# sucyc     = d          reps      = 2          header    = y         
# bscor     = n          pad1      = n          pad2      = n         
# bsim      = n          T1        = n          T2        = n         
# rdc       = n          dcyc      = n          sw        = n         
#
# RF Calibration Data :  ref_pwr   = 60         ref_pw90  = 8.03
# ~~~~~~~~~~~~~~~~~~~~~
###
# ------------------- Shape data ------------------
# pwtot      = 0.0300000 (total pw, s)
# power      = 34 (power level, dB)
# pwrf       = 4095 (fine power)
# B1max      = 1.5604 (B1max, kHz)
# B1rms      = 0.8780 (B1[RMS], kHz)
# nptot      = 3000 (total number of steps)
# stepsize   = 10.00 (length of a single step, us)
# maxamp     = 941.1 (max amplitude)
# ------------------------------------------------- 
#      phase      amplitude   length     gate 
# ------------------------------------------------- 
        0.00      1023.00      0.0        0
       0.000        0.000      1.0        0
     101.766        0.000      1.0        0
     167.195        0.000      1.0        0
     232.624        0.000      1.0        0
     298.053        0.000      1.0        0
       3.481        0.000      1.0        0
      68.910        0.000      1.0        0
     134.339        0.000      1.0        0
     199.768        0.000      1.0        0
     265.197        0.000      1.0        0
     330.625        0.000      1.0        0
      36.054        0.000      1.0        0
     101.483        0.000      1.0        0
     166.912        0.000      1.0        0
     232.340        0.000      1.0        0
     297.769        0.000      1.0        0
       3.198        0.000      1.0        0
      68.627        0.000      1.0        0
     134.055        0.000      1.0        0
     199.484        0.000      1.0        0
     264.913        0.000      1.0        0
     330.342        0.000      1.0        0
      35.771        0.000      1.0        1
     101.199        0.000      1.0        1
     166.628        0.000      1.0        1
     232.057        0.000      1.0        1
     297.486        0.000      1.0        1
       2.914        0.000      1.0        1
      68.343        0.000      1.0        1
     133.772        0.000      1.0        1
     199.201        0.000      1.0        1
     264.629        0.000      1.0        1
     330.058        0.057      1.0        1
      35.487        0.124      1.0        1
     100.916        0.193      1.0        1
     166.345        0.264      1.0        1
     231.773        0.338      1.0        1
     297.202        0.413      1.0        1
       2.631        0.490      1.0        1
      68.060        0.570      1.0        1
     133.488        0.651      1.0        1
     198.917        0.735      1.0        1
     264.346        0.820      1.0        1
     329.775        0.908      1.0        1
      35.203        0.998      1.0        1
     100.632        1.090      1.0        1
     166.061        1.183      1.0        1
     231.490        1.279      1.0        1
     296.918        1.377      1.0        1
       2.347        1.477      1.0        1
      67.776        1.579      1.0        1
     133.205        1.683      1.0        1
     198.634        1.790      1.0        1
     264.062        1.898      1.0        1
     329.491        2.008      1.0        1
      34.920        2.120      1.0        1
     100.349        2.235      1.0        1
     165.777        2.351      1.0        1
     231.206        2.470      1.0        1
     296.635        2.590      1.0        1
       2.064        2.713      1.0        1
      67.492        2.837      1.0        1
     132.921        2.964      1.0        1
     198.350        3.093      1.0        1
     263.779        3.223      1.0        1
     329.207        3.356      1.0        1
      34.636        3.491      1.0        1
     100.065        3.628      1.0        1
     165.493        3.767      1.0        1
     230.922        3.908      1.0        1
     296.351        4.051      1.0        1
       1.780        4.196      1.0        1
      67.208        4.343      1.0        1
     132.637        4.492      1.0        1
     198.066        4.644      1.0        1
     263.494        4.797      1.0        1
     328.923        4.952      1.0        1
      34.352        5.109      1.0        1
      99.781        5.269      1.0        1
     165.209        5.430      1.0        1
     230.638        5.594      1.0        1
     296.067        5.759      1.0        1
       1.495        5.927      1.0        1
      66.924        6.096      1.0        1
     132.353        6.268      1.0        1
     197.781        6.441      1.0        1
     263.210        6.617      1.0        1
     328.639        6.795      1.0        1
      34.067        6.974      1.0        1
      99.496        7.156      1.0        1
     164.924        7.340      1.0        1
     230.353        7.526      1.0        1
     295.782        7.713      1.0        1
       1.210        7.903      1.0        1
      66.639        8.095      1.0        1
     132.067        8.289      1.0        1
     197.496        8.485      1.0        1
     262.924        8.683      1.0        1
     328.353        8.883      1.0        1
      33.781        9.085      1.0        1
      99.210        9.289      1.0        1
     164.638        9.495      1.0        1
     230.067        9.703      1.0        1
     295.495        9.913      1.0        1
       0.924       10.125      1.0        1
      66.352       10.339      1.0        1
     131.781       10.555      1.0        1
     197.209       10.774      1.0        1
     262.637       10.994      1.0        1
     328.066       11.216      1.0        1
      33.494       11.440      1.0        1
      98.922       11.666      1.0        1
     164.351       11.894      1.0        1
     229.779       12.125      1.0        1
     295.207       12.357      1.0        1
       0.635       12.591      1.0        1
      66.064       12.827      1.0        1
     131.492       13.066      1.0        1
     196.920       13.306      1.0        1
     262.348       13.548      1.0        1
     327.776       13.792      1.0        1
      33.204       14.039      1.0        1
      98.632       14.287      1.0        1
     164.060       14.537      1.0        1
     229.488       14.789      1.0        1
     294.916       15.043      1.0        1
       0.344       15.300      1.0        1
      65.772       15.558      1.0        1
     131.200       15.818      1.0        1
     196.627       16.080      1.0        1
     262.055       16.345      1.0        1
     327.483       16.611      1.0        1
      32.911       16.879      1.0        1
      98.338       17.149      1.0        1
     163.766       17.421      1.0        1
     229.193       17.695      1.0        1
     294.621       17.971      1.0        1
       0.048       18.249      1.0        1
      65.476       18.530      1.0        1
     130.903       18.812      1.0        1
     196.330       19.096      1.0        1
     261.758       19.382      1.0        1
     327.185       19.670      1.0        1
      32.612       19.960      1.0        1
      98.039       20.252      1.0        1
     163.466       20.545      1.0        1
     228.893       20.841      1.0        1
     294.320       21.139      1.0        1
     359.747       21.439      1.0        1
      65.174       21.741      1.0        1
     130.600       22.044      1.0        1
     196.027       22.350      1.0        1
     261.453       22.658      1.0        1
     326.880       22.968      1.0        1
      32.306       23.279      1.0        1
      97.733       23.593      1.0        1
     163.159       23.908      1.0        1
     228.585       24.226      1.0        1
     294.011       24.545      1.0        1
     359.437       24.866      1.0        1
      64.863       25.190      1.0        1
     130.289       25.515      1.0        1
     195.715       25.842      1.0        1
     261.140       26.171      1.0        1
     326.566       26.503      1.0        1
      31.991       26.836      1.0        1
      97.417       27.171      1.0        1
     162.842       27.508      1.0        1
     228.267       27.846      1.0        1
     293.692       28.187      1.0        1
     359.117       28.530      1.0        1
      64.542       28.875      1.0        1
     129.966       29.221      1.0        1
     195.391       29.570      1.0        1
     260.815       29.920      1.0        1
     326.240       30.273      1.0        1
      31.664       30.627      1.0        1
      97.088       30.983      1.0        1
     162.512       31.342      1.0        1
     227.936       31.702      1.0        1
     293.359       32.064      1.0        1
     358.783       32.428      1.0        1
      64.206       32.794      1.0        1
     129.629       33.162      1.0        1
     195.052       33.531      1.0        1
     260.475       33.903      1.0        1
     325.898       34.276      1.0        1
      31.320       34.652      1.0        1
      96.743       35.029      1.0        1
     162.165       35.409      1.0        1
     227.587       35.790      1.0        1
     293.009       36.173      1.0        1
     358.431       36.558      1.0        1
      63.852       36.945      1.0        1
     129.274       37.333      1.0        1
     194.695       37.724      1.0        1
     260.116       38.117      1.0        1
     325.536       38.511      1.0        1
      30.957       38.908      1.0        1
      96.377       39.306      1.0        1
     161.797       39.706      1.0        1
     227.217       40.108      1.0        1
     292.637       40.512      1.0        1
     358.056       40.918      1.0        1
      63.475       41.325      1.0        1
     128.894       41.735      1.0        1
     194.313       42.146      1.0        1
     259.732       42.560      1.0        1
     325.150       42.975      1.0        1
      30.568       43.392      1.0        1
      95.985       43.811      1.0        1
     161.403       44.232      1.0        1
     226.820       44.654      1.0        1
     292.237       45.079      1.0        1
     357.654       45.505      1.0        1
      63.070       45.934      1.0        1
     128.486       46.364      1.0        1
     193.902       46.796      1.0        1
     259.317       47.229      1.0        1
     324.732       47.665      1.0        1
      30.147       48.103      1.0        1
      95.562       48.542      1.0        1
     160.976       48.983      1.0        1
     226.390       49.426      1.0        1
     291.803       49.871      1.0        1
     357.217       50.318      1.0        1
      62.630       50.767      1.0        1
     128.042       51.217      1.0        1
     193.454       51.669      1.0        1
     258.866       52.123      1.0        1
     324.277       52.579      1.0        1
      29.688       53.037      1.0        1
      95.099       53.497      1.0        1
     160.509       53.958      1.0        1
     225.919       54.421      1.0        1
     291.329       54.887      1.0        1
     356.738       55.353      1.0        1
      62.146       55.822      1.0        1
     127.555       56.293      1.0        1
     192.962       56.765      1.0        1
     258.370       57.239      1.0        1
     323.777       57.715      1.0        1
      29.183       58.193      1.0        1
      94.589       58.672      1.0        1
     159.994       59.154      1.0        1
     225.400       59.637      1.0        1
     290.804       60.122      1.0        1
     356.208       60.609      1.0        1
      61.612       61.097      1.0        1
     127.015       61.588      1.0        1
     192.417       62.080      1.0        1
     257.819       62.574      1.0        1
     323.221       63.070      1.0        1
      28.622       63.567      1.0        1
      94.022       64.066      1.0        1
     159.422       64.567      1.0        1
     224.821       65.070      1.0        1
     290.220       65.575      1.0        1
     355.618       66.081      1.0        1
      61.016       66.589      1.0        1
     126.413       67.099      1.0        1
     191.809       67.611      1.0        1
     257.205       68.125      1.0        1
     322.600       68.640      1.0        1
      27.994       69.157      1.0        1
      93.388       69.676      1.0        1
     158.781       70.196      1.0        1
     224.174       70.718      1.0        1
     289.565       71.242      1.0        1
     354.956       71.768      1.0        1
      60.347       72.296      1.0        1
     125.737       72.825      1.0        1
     191.126       73.356      1.0        1
     256.514       73.889      1.0        1
     321.901       74.423      1.0        1
      27.288       74.959      1.0        1
      92.674       75.497      1.0        1
     158.059       76.037      1.0        1
     223.444       76.578      1.0        1
     288.828       77.121      1.0        1
     354.210       77.666      1.0        1
      59.593       78.213      1.0        1
     124.974       78.761      1.0        1
     190.354       79.311      1.0        1
     255.734       79.863      1.0        1
     321.112       80.416      1.0        1
      26.490       80.971      1.0        1
      91.867       81.528      1.0        1
     157.243       82.086      1.0        1
     222.618       82.647      1.0        1
     287.993       83.209      1.0        1
     353.366       83.772      1.0        1
      58.738       84.338      1.0        1
     124.110       84.905      1.0        1
     189.480       85.473      1.0        1
     254.850       86.044      1.0        1
     320.218       86.616      1.0        1
      25.585       87.189      1.0        1
      90.952       87.765      1.0        1
     156.317       88.342      1.0        1
     221.682       88.921      1.0        1
     287.045       89.501      1.0        1
     352.407       90.083      1.0        1
      57.768       90.667      1.0        1
     123.128       91.252      1.0        1
     188.487       91.840      1.0        1
     253.845       92.428      1.0        1
     319.201       93.019      1.0        1
      24.557       93.611      1.0        1
      89.911       94.205      1.0        1
     155.264       94.800      1.0        1
     220.616       95.397      1.0        1
     285.967       95.996      1.0        1
     351.316       96.596      1.0        1
      56.664       97.198      1.0        1
     122.011       97.801      1.0        1
     187.357       98.407      1.0        1
     252.701       99.013      1.0        1
     318.044       99.622      1.0        1
      23.386      100.232      1.0        1
      88.726      100.844      1.0        1
     154.065      101.457      1.0        1
     219.403      102.072      1.0        1
     284.739      102.688      1.0        1
     350.074      103.306      1.0        1
      55.407      103.926      1.0        1
     120.739      104.548      1.0        1
     186.069      105.171      1.0        1
     251.398      105.795      1.0        1
     316.726      106.421      1.0        1
      22.052      107.049      1.0        1
      87.376      107.678      1.0        1
     152.699      108.309      1.0        1
     218.020      108.942      1.0        1
     283.340      109.576      1.0        1
     348.658      110.212      1.0        1
      53.974      110.849      1.0        1
     119.289      111.488      1.0        1
     184.602      112.128      1.0        1
     249.914      112.770      1.0        1
     315.223      113.414      1.0        1
      20.532      114.059      1.0        1
      85.838      114.705      1.0        1
     151.142      115.354      1.0        1
     216.445      116.003      1.0        1
     281.746      116.655      1.0        1
     347.045      117.308      1.0        1
      52.343      117.962      1.0        1
     117.638      118.618      1.0        1
     182.932      119.275      1.0        1
     248.223      119.934      1.0        1
     313.513      120.595      1.0        1
      18.801      121.257      1.0        1
      84.087      121.921      1.0        1
     149.371      122.586      1.0        1
     214.652      123.253      1.0        1
     279.932      123.921      1.0        1
     345.210      124.591      1.0        1
      50.486      125.262      1.0        1
     115.759      125.934      1.0        1
     181.031      126.609      1.0        1
     246.300      127.285      1.0        1
     311.567      127.962      1.0        1
      16.832      128.641      1.0        1
      82.095      129.321      1.0        1
     147.356      130.003      1.0        1
     212.614      130.686      1.0        1
     277.870      131.370      1.0        1
     343.124      132.057      1.0        1
      48.375      132.744      1.0        1
     113.624      133.434      1.0        1
     178.871      134.124      1.0        1
     244.115      134.816      1.0        1
     309.357      135.510      1.0        1
      14.597      136.205      1.0        1
      79.833      136.902      1.0        1
     145.068      137.599      1.0        1
     210.300      138.299      1.0        1
     275.529      139.000      1.0        1
     340.756      139.702      1.0        1
      45.980      140.406      1.0        1
     111.202      141.111      1.0        1
     176.421      141.818      1.0        1
     241.637      142.526      1.0        1
     306.850      143.235      1.0        1
      12.061      143.946      1.0        1
      77.269      144.659      1.0        1
     142.474      145.373      1.0        1
     207.677      146.088      1.0        1
     272.876      146.805      1.0        1
     338.073      147.523      1.0        1
      43.267      148.242      1.0        1
     108.458      148.963      1.0        1
     173.646      149.685      1.0        1
     238.831      150.409      1.0        1
     304.013      151.134      1.0        1
       9.192      151.861      1.0        1
      74.367      152.589      1.0        1
     139.540      153.318      1.0        1
     204.710      154.049      1.0        1
     269.876      154.781      1.0        1
     335.039      155.514      1.0        1
      40.199      156.249      1.0        1
     105.356      156.985      1.0        1
     170.510      157.723      1.0        1
     235.660      158.462      1.0        1
     300.807      159.202      1.0        1
       5.950      159.944      1.0        1
      71.090      160.687      1.0        1
     136.227      161.431      1.0        1
     201.360      162.177      1.0        1
     266.490      162.924      1.0        1
     331.616      163.673      1.0        1
