# Pbox  30000.00  33 4095  0.0     0    1.0000 1.39067     6
# VJ4.2  pw (us)  pwr  pwrf  dres  dmf  dcyc   B1max (kHz)  Stype
# ---------------------------------------------------------------
# Pxsim 0.0300000 1253.7551 0.000 166666.8 0.0000000 0.0000000 0.00
# data: pw (s) B1max (Hz) status sw (Hz) T1 (s)   T2 (s) RDC (Hz)
# ---------------------------------------------------------------
# Pbox.inp data :
# ~~~~~~~~~~~~~~~~~~~~~~~~~~~Waves~~~~~~~~~~~~~~~~~~~~~~~~~~~~~~~~~~
#   shape   bw(/pw)   ofs  st  ph  fla  trev  d1  d2   d0   wrp  php
# ~~~~~~~~~~~~~~~~~~~~~~~~~~~~~~~~~~~~~~~~~~~~~~~~~~~~~~~~~~~~~~~~~~
# { wurst2i 27777.8/0.0300000 }
#
# type      = r          mod       = n          dres      = n         
# steps     = n          stepsize  = 10.00      attn      = i         
# refofs    = n          wrap      = n          sfrq      = n         
# sucyc     = d          reps      = 2          header    = y         
# bscor     = n          pad1      = n          pad2      = n         
# bsim      = n          T1        = n          T2        = n         
# rdc       = n          dcyc      = n          sw        = n         
#
# RF Calibration Data :  ref_pwr   = 60         ref_pw90  = 8.03
# ~~~~~~~~~~~~~~~~~~~~~
###
# ------------------- Shape data ------------------
# pwtot      = 0.0300000 (total pw, s)
# power      = 33 (power level, dB)
# pwrf       = 4095 (fine power)
# B1max      = 1.3907 (B1max, kHz)
# B1rms      = 0.7676 (B1[RMS], kHz)
# nptot      = 3000 (total number of steps)
# stepsize   = 10.00 (length of a single step, us)
# maxamp     = 923.2 (max amplitude)
# ------------------------------------------------- 
#      phase      amplitude   length     gate 
# ------------------------------------------------- 
        0.00      1023.00      0.0        0
       0.000        0.000      1.0        0
     245.734        0.000      1.0        0
     295.750        0.000      1.0        0
     345.767        0.000      1.0        0
      35.784        0.000      1.0        0
      85.801        0.000      1.0        0
     135.817        0.000      1.0        0
     185.834        0.000      1.0        0
     235.851        0.000      1.0        0
     285.867        0.000      1.0        0
     335.884        0.000      1.0        0
      25.901        0.000      1.0        0
      75.918        0.000      1.0        0
     125.934        0.000      1.0        0
     175.951        0.000      1.0        0
     225.968        0.000      1.0        0
     275.984        0.000      1.0        0
     326.001        0.000      1.0        0
      16.018        0.000      1.0        0
      66.035        0.000      1.0        0
     116.051        0.000      1.0        0
     166.068        0.000      1.0        0
     216.085        0.000      1.0        0
     266.101        0.000      1.0        1
     316.118        0.000      1.0        1
       6.135        0.000      1.0        1
      56.152        0.000      1.0        1
     106.168        0.000      1.0        1
     156.185        0.000      1.0        1
     206.202        0.000      1.0        1
     256.218        0.000      1.0        1
     306.235        0.000      1.0        1
     356.252        0.037      1.0        1
      46.269        0.103      1.0        1
      96.285        0.171      1.0        1
     146.302        0.240      1.0        1
     196.319        0.312      1.0        1
     246.335        0.386      1.0        1
     296.352        0.462      1.0        1
     346.369        0.540      1.0        1
      36.386        0.620      1.0        1
      86.402        0.702      1.0        1
     136.419        0.786      1.0        1
     186.436        0.872      1.0        1
     236.452        0.960      1.0        1
     286.469        1.050      1.0        1
     336.486        1.142      1.0        1
      26.502        1.236      1.0        1
      76.519        1.332      1.0        1
     126.536        1.430      1.0        1
     176.553        1.530      1.0        1
     226.569        1.632      1.0        1
     276.586        1.737      1.0        1
     326.603        1.843      1.0        1
      16.619        1.951      1.0        1
      66.636        2.061      1.0        1
     116.653        2.173      1.0        1
     166.670        2.288      1.0        1
     216.686        2.404      1.0        1
     266.703        2.522      1.0        1
     316.720        2.642      1.0        1
       6.736        2.764      1.0        1
      56.753        2.889      1.0        1
     106.770        3.015      1.0        1
     156.786        3.143      1.0        1
     206.803        3.274      1.0        1
     256.820        3.406      1.0        1
     306.836        3.540      1.0        1
     356.853        3.676      1.0        1
      46.870        3.815      1.0        1
      96.886        3.955      1.0        1
     146.903        4.097      1.0        1
     196.920        4.242      1.0        1
     246.937        4.388      1.0        1
     296.953        4.536      1.0        1
     346.970        4.687      1.0        1
      36.987        4.839      1.0        1
      87.003        4.993      1.0        1
     137.020        5.150      1.0        1
     187.036        5.308      1.0        1
     237.053        5.468      1.0        1
     287.070        5.631      1.0        1
     337.086        5.795      1.0        1
      27.103        5.961      1.0        1
      77.120        6.130      1.0        1
     127.136        6.300      1.0        1
     177.153        6.472      1.0        1
     227.169        6.647      1.0        1
     277.186        6.823      1.0        1
     327.203        7.001      1.0        1
      17.219        7.182      1.0        1
      67.236        7.364      1.0        1
     117.252        7.548      1.0        1
     167.269        7.734      1.0        1
     217.286        7.923      1.0        1
     267.302        8.113      1.0        1
     317.319        8.305      1.0        1
       7.335        8.499      1.0        1
      57.352        8.695      1.0        1
     107.368        8.893      1.0        1
     157.385        9.094      1.0        1
     207.401        9.296      1.0        1
     257.418        9.500      1.0        1
     307.434        9.706      1.0        1
     357.451        9.914      1.0        1
      47.467       10.124      1.0        1
      97.484       10.336      1.0        1
     147.500       10.550      1.0        1
     197.516       10.766      1.0        1
     247.533       10.984      1.0        1
     297.549       11.204      1.0        1
     347.565       11.426      1.0        1
      37.582       11.650      1.0        1
      87.598       11.875      1.0        1
     137.614       12.103      1.0        1
     187.631       12.333      1.0        1
     237.647       12.565      1.0        1
     287.663       12.798      1.0        1
     337.680       13.034      1.0        1
      27.696       13.272      1.0        1
      77.712       13.511      1.0        1
     127.728       13.753      1.0        1
     177.744       13.996      1.0        1
     227.760       14.242      1.0        1
     277.776       14.489      1.0        1
     327.793       14.739      1.0        1
      17.809       14.990      1.0        1
      67.825       15.243      1.0        1
     117.841       15.499      1.0        1
     167.857       15.756      1.0        1
     217.873       16.015      1.0        1
     267.888       16.276      1.0        1
     317.904       16.539      1.0        1
       7.920       16.804      1.0        1
      57.936       17.071      1.0        1
     107.952       17.340      1.0        1
     157.967       17.611      1.0        1
     207.983       17.884      1.0        1
     257.999       18.159      1.0        1
     308.015       18.435      1.0        1
     358.030       18.714      1.0        1
      48.046       18.995      1.0        1
      98.061       19.277      1.0        1
     148.077       19.562      1.0        1
     198.092       19.848      1.0        1
     248.107       20.136      1.0        1
     298.123       20.427      1.0        1
     348.138       20.719      1.0        1
      38.153       21.013      1.0        1
      88.168       21.309      1.0        1
     138.184       21.607      1.0        1
     188.199       21.907      1.0        1
     238.214       22.209      1.0        1
     288.229       22.512      1.0        1
     338.244       22.818      1.0        1
      28.258       23.126      1.0        1
      78.273       23.435      1.0        1
     128.288       23.747      1.0        1
     178.303       24.060      1.0        1
     228.317       24.375      1.0        1
     278.332       24.692      1.0        1
     328.346       25.011      1.0        1
      18.361       25.332      1.0        1
      68.375       25.655      1.0        1
     118.389       25.980      1.0        1
     168.403       26.307      1.0        1
     218.417       26.636      1.0        1
     268.431       26.966      1.0        1
     318.445       27.299      1.0        1
       8.459       27.633      1.0        1
      58.473       27.969      1.0        1
     108.487       28.307      1.0        1
     158.500       28.647      1.0        1
     208.514       28.989      1.0        1
     258.527       29.333      1.0        1
     308.540       29.679      1.0        1
     358.554       30.027      1.0        1
      48.567       30.376      1.0        1
      98.580       30.728      1.0        1
     148.593       31.081      1.0        1
     198.605       31.436      1.0        1
     248.618       31.793      1.0        1
     298.631       32.152      1.0        1
     348.643       32.513      1.0        1
      38.655       32.876      1.0        1
      88.668       33.240      1.0        1
     138.680       33.607      1.0        1
     188.692       33.975      1.0        1
     238.703       34.345      1.0        1
     288.715       34.717      1.0        1
     338.727       35.091      1.0        1
      28.738       35.467      1.0        1
      78.750       35.845      1.0        1
     128.761       36.224      1.0        1
     178.772       36.606      1.0        1
     228.783       36.989      1.0        1
     278.793       37.374      1.0        1
     328.804       37.761      1.0        1
      18.814       38.150      1.0        1
      68.824       38.540      1.0        1
     118.835       38.933      1.0        1
     168.844       39.327      1.0        1
     218.854       39.724      1.0        1
     268.864       40.122      1.0        1
     318.873       40.522      1.0        1
       8.882       40.923      1.0        1
      58.891       41.327      1.0        1
     108.900       41.732      1.0        1
     158.909       42.140      1.0        1
     208.917       42.549      1.0        1
     258.926       42.960      1.0        1
     308.934       43.373      1.0        1
     358.942       43.787      1.0        1
      48.949       44.204      1.0        1
      98.957       44.622      1.0        1
     148.964       45.042      1.0        1
     198.971       45.464      1.0        1
     248.978       45.888      1.0        1
     298.984       46.314      1.0        1
     348.990       46.741      1.0        1
      38.997       47.170      1.0        1
      89.002       47.601      1.0        1
     139.008       48.034      1.0        1
     189.013       48.469      1.0        1
     239.018       48.905      1.0        1
     289.023       49.343      1.0        1
     339.028       49.784      1.0        1
      29.032       50.225      1.0        1
      79.036       50.669      1.0        1
     129.040       51.115      1.0        1
     179.043       51.562      1.0        1
     229.046       52.011      1.0        1
     279.049       52.462      1.0        1
     329.052       52.914      1.0        1
      19.054       53.369      1.0        1
      69.056       53.825      1.0        1
     119.058       54.283      1.0        1
     169.059       54.743      1.0        1
     219.060       55.205      1.0        1
     269.061       55.668      1.0        1
     319.061       56.133      1.0        1
       9.061       56.600      1.0        1
      59.061       57.069      1.0        1
     109.060       57.539      1.0        1
     159.059       58.011      1.0        1
     209.057       58.485      1.0        1
     259.056       58.961      1.0        1
     309.053       59.439      1.0        1
     359.051       59.918      1.0        1
      49.048       60.399      1.0        1
      99.045       60.882      1.0        1
     149.041       61.366      1.0        1
     199.037       61.853      1.0        1
     249.032       62.341      1.0        1
     299.027       62.831      1.0        1
     349.022       63.322      1.0        1
      39.016       63.816      1.0        1
      89.010       64.311      1.0        1
     139.003       64.807      1.0        1
     188.996       65.306      1.0        1
     238.988       65.806      1.0        1
     288.980       66.308      1.0        1
     338.971       66.812      1.0        1
      28.962       67.317      1.0        1
      78.953       67.824      1.0        1
     128.943       68.333      1.0        1
     178.932       68.844      1.0        1
     228.921       69.356      1.0        1
     278.910       69.870      1.0        1
     328.898       70.386      1.0        1
      18.885       70.904      1.0        1
      68.872       71.423      1.0        1
     118.858       71.944      1.0        1
     168.844       72.466      1.0        1
     218.829       72.991      1.0        1
     268.814       73.517      1.0        1
     318.798       74.044      1.0        1
       8.781       74.574      1.0        1
      58.764       75.105      1.0        1
     108.746       75.638      1.0        1
     158.728       76.172      1.0        1
     208.709       76.708      1.0        1
     258.689       77.246      1.0        1
     308.669       77.786      1.0        1
     358.648       78.327      1.0        1
      48.627       78.870      1.0        1
      98.604       79.414      1.0        1
     148.582       79.961      1.0        1
     198.558       80.509      1.0        1
     248.534       81.058      1.0        1
     298.509       81.609      1.0        1
     348.483       82.162      1.0        1
      38.457       82.717      1.0        1
      88.429       83.273      1.0        1
     138.402       83.831      1.0        1
     188.373       84.391      1.0        1
     238.344       84.952      1.0        1
     288.313       85.515      1.0        1
     338.282       86.079      1.0        1
      28.251       86.645      1.0        1
      78.218       87.213      1.0        1
     128.185       87.783      1.0        1
     178.151       88.354      1.0        1
     228.116       88.926      1.0        1
     278.080       89.501      1.0        1
     328.043       90.077      1.0        1
      18.005       90.654      1.0        1
      67.967       91.233      1.0        1
     117.928       91.814      1.0        1
     167.887       92.397      1.0        1
     217.846       92.981      1.0        1
     267.804       93.566      1.0        1
     317.761       94.154      1.0        1
       7.717       94.742      1.0        1
      57.672       95.333      1.0        1
     107.626       95.925      1.0        1
     157.580       96.519      1.0        1
     207.532       97.114      1.0        1
     257.483       97.711      1.0        1
     307.433       98.309      1.0        1
     357.382       98.909      1.0        1
      47.330       99.511      1.0        1
      97.277      100.114      1.0        1
     147.223      100.719      1.0        1
     197.168      101.326      1.0        1
     247.112      101.934      1.0        1
     297.054      102.543      1.0        1
     346.996      103.154      1.0        1
      36.936      103.767      1.0        1
      86.875      104.381      1.0        1
     136.814      104.997      1.0        1
     186.751      105.614      1.0        1
     236.686      106.233      1.0        1
     286.621      106.854      1.0        1
     336.554      107.476      1.0        1
      26.486      108.100      1.0        1
      76.417      108.725      1.0        1
     126.347      109.351      1.0        1
     176.275      109.980      1.0        1
     226.202      110.609      1.0        1
     276.128      111.241      1.0        1
     326.052      111.874      1.0        1
      15.975      112.508      1.0        1
      65.897      113.144      1.0        1
     115.817      113.781      1.0        1
     165.736      114.420      1.0        1
     215.654      115.061      1.0        1
     265.570      115.703      1.0        1
     315.485      116.346      1.0        1
       5.399      116.991      1.0        1
      55.310      117.638      1.0        1
     105.221      118.286      1.0        1
     155.130      118.935      1.0        1
     205.037      119.586      1.0        1
     254.943      120.239      1.0        1
     304.848      120.893      1.0        1
     354.750      121.548      1.0        1
      44.652      122.205      1.0        1
      94.551      122.864      1.0        1
     144.450      123.524      1.0        1
     194.346      124.185      1.0        1
     244.241      124.848      1.0        1
     294.134      125.513      1.0        1
     344.026      126.179      1.0        1
      33.915      126.846      1.0        1
      83.804      127.515      1.0        1
     133.690      128.185      1.0        1
     183.575      128.857      1.0        1
     233.458      129.530      1.0        1
     283.339      130.205      1.0        1
     333.218      130.881      1.0        1
      23.096      131.558      1.0        1
      72.971      132.237      1.0        1
     122.845      132.918      1.0        1
     172.717      133.599      1.0        1
     222.587      134.283      1.0        1
     272.455      134.967      1.0        1
     322.321      135.654      1.0        1
      12.186      136.341      1.0        1
      62.048      137.030      1.0        1
     111.908      137.721      1.0        1
     161.767      138.412      1.0        1
     211.623      139.106      1.0        1
     261.477      139.800      1.0        1
     311.329      140.496      1.0        1
       1.179      141.194      1.0        1
      51.027      141.893      1.0        1
     100.873      142.593      1.0        1
     150.717      143.295      1.0        1
     200.558      143.998      1.0        1
     250.398      144.702      1.0        1
     300.235      145.408      1.0        1
     350.070      146.115      1.0        1
      39.902      146.824      1.0        1
      89.733      147.534      1.0        1
     139.561      148.245      1.0        1
     189.386      148.958      1.0        1
     239.210      149.672      1.0        1
     289.031      150.388      1.0        1
     338.849      151.104      1.0        1
      28.665      151.823      1.0        1
      78.479      152.542      1.0        1
     128.290      153.263      1.0        1
     178.099      153.985      1.0        1
     227.906      154.709      1.0        1
     277.709      155.434      1.0        1
     327.510      156.160      1.0        1
      17.309      156.888      1.0        1
      67.105      157.617      1.0        1
     116.899      158.347      1.0        1
     166.689      159.078      1.0        1
     216.477      159.811      1.0        1
     266.263      160.546      1.0        1
