# Pbox  60006.30  -1 4095  0.0     0    1.0000 0.02684     4
# VJ4.2  pw (us)  pwr  pwrf  dres  dmf  dcyc   B1max (kHz)  Stype
# ---------------------------------------------------------------
# Pxsim 0.0600063 22.8879 0.500 47995.0 0.0000000 0.0000000 0.00
# data: pw (s) B1max (Hz) status sw (Hz) T1 (s)   T2 (s) RDC (Hz)
# ---------------------------------------------------------------
# Pbox.inp data :
# ~~~~~~~~~~~~~~~~~~~~~~~~~~~Waves~~~~~~~~~~~~~~~~~~~~~~~~~~~~~~~~~~
#   shape   bw(/pw)   ofs  st  ph  fla  trev  d1  d2   d0   wrp  php
# ~~~~~~~~~~~~~~~~~~~~~~~~~~~~~~~~~~~~~~~~~~~~~~~~~~~~~~~~~~~~~~~~~~
# { chirp 8000/30m 0 0.5 a2 5 }
# { chirp -8000/30m 0 0.5 a2 5 }
#
# type      = r          mod       = n          dres      = n         
# steps     = n          stepsize  = n          attn      = i         
# refofs    = n          wrap      = n          sfrq      = n         
# sucyc     = d          reps      = 2          header    = y         
# bscor     = n          pad1      = n          pad2      = n         
# bsim      = n          T1        = n          T2        = n         
# rdc       = n          dcyc      = n          sw        = n         
#
# RF Calibration Data :  ref_pwr   = 60         ref_pw90  = 8.30
# ~~~~~~~~~~~~~~~~~~~~~
###
# ------------------- Shape data ------------------
# pwtot      = 0.0600063 (total pw, s)
# power      = -1 (power level, dB)
# pwrf       = 4095 (fine power)
# B1max      = 0.0268 (B1max, kHz)
# B1rms      = 0.0164 (B1[RMS], kHz)
# nptot      = 2878 (total number of steps)
# stepsize   = 20.85 (length of a single step, us)
# maxamp     = 873.1 (max amplitude)
# ------------------------------------------------- 
#      phase      amplitude   length     gate 
# ------------------------------------------------- 
        0.00      1023.00      0.0        0
      -0.000      872.061      1.0        1
       0.000      754.934      1.0        1
      -0.000      435.532      1.0        1
      -0.000        0.000      1.0        1
     180.000      433.320      1.0        1
     180.000      752.692      1.0        1
     180.000      872.027      1.0        1
     180.000      760.605      1.0        1
     180.000      448.702      1.0        1
     180.000       19.061      1.0        1
      -0.000      413.285      1.0        1
      -0.000      738.841      1.0        1
      -0.000      871.224      1.0        1
       0.000      776.821      1.0        1
      -0.000      481.009      1.0        1
       0.000       61.037      1.0        1
     180.000      372.377      1.0        1
     180.000      711.288      1.0        1
     180.000      867.250      1.0        1
     180.000      801.154      1.0        1
     180.000      530.752      1.0        1
     180.000      125.587      1.0        1
       0.000      309.123      1.0        1
       0.000      666.903      1.0        1
       0.000      855.927      1.0        1
       0.000      829.396      1.0        1
      -0.000      594.846      1.0        1
      -0.000      211.738      1.0        1
     180.000      221.865      1.0        1
     180.000      601.525      1.0        1
     180.000      831.421      1.0        1
     180.000      855.383      1.0        1
     180.000      668.366      1.0        1
     180.000      317.187      1.0        1
      -0.000      109.455      1.0        1
      -0.000      510.550      1.0        1
      -0.000      786.532      1.0        1
      -0.000      870.909      1.0        1
       0.000      744.055      1.0        1
      -0.000      437.488      1.0        1
       0.000       25.771      1.0        1
     180.000      389.817      1.0        1
     180.000      713.295      1.0        1
     180.000      865.858      1.0        1
     180.000      811.922      1.0        1
     180.000      565.165      1.0        1
     180.000      184.791      1.0        1
       0.000      236.895      1.0        1
       0.000      604.043      1.0        1
       0.000      828.784      1.0        1
      -0.000      859.170      1.0        1
      -0.000      688.950      1.0        1
       0.000      358.561      1.0        1
     180.000       52.720      1.0        1
     180.000      453.015      1.0        1
     180.000      748.132      1.0        1
     180.000      870.717      1.0        1
     180.000      793.436      1.0        1
     180.000      534.808      1.0        1
     180.000      154.520      1.0        1
      -0.000      258.549      1.0        1
      -0.000      614.281      1.0        1
      -0.000      830.642      1.0        1
      -0.000      859.551      1.0        1
      -0.000      695.344      1.0        1
      -0.000      375.601      1.0        1
     180.000       25.680      1.0        1
     180.000      422.460      1.0        1
     180.000      724.803      1.0        1
     180.000      866.302      1.0        1
     180.000      816.487      1.0        1
     180.000      587.152      1.0        1
     180.000      229.325      1.0        1
       0.000      176.285      1.0        1
       0.000      544.717      1.0        1
       0.000      794.180      1.0        1
       0.000      871.228      1.0        1
      -0.000      760.010      1.0        1
       0.000      485.291      1.0        1
      -0.000      106.708      1.0        1
     180.000      292.350      1.0        1
     180.000      630.317      1.0        1
     180.000      833.681      1.0        1
     180.000      859.979      1.0        1
     180.000      704.463      1.0        1
     180.000      400.691      1.0        1
     180.000       13.078      1.0        1
      -0.000      374.912      1.0        1
       0.000      685.942      1.0        1
      -0.000      853.714      1.0        1
       0.000      844.116      1.0        1
       0.000      659.944      1.0        1
      -0.000      339.929      1.0        1
     180.000       47.604      1.0        1
     180.000      426.611      1.0        1
     180.000      717.818      1.0        1
     180.000      862.406      1.0        1
     180.000      831.741      1.0        1
     180.000      632.833      1.0        1
     180.000      306.538      1.0        1
      -0.000       79.026      1.0        1
       0.000      449.988      1.0        1
      -0.000      730.401      1.0        1
       0.000      864.909      1.0        1
      -0.000      827.528      1.0        1
       0.000      626.453      1.0        1
      -0.000      302.069      1.0        1
     180.000       79.338      1.0        1
     180.000      446.435      1.0        1
     180.000      725.669      1.0        1
     180.000      863.145      1.0        1
     180.000      832.883      1.0        1
     180.000      641.530      1.0        1
     180.000      326.710      1.0        1
       0.000       48.541      1.0        1
       0.000      415.730      1.0        1
      -0.000      702.862      1.0        1
      -0.000      855.729      1.0        1
      -0.000      846.006      1.0        1
      -0.000      676.313      1.0        1
      -0.000      379.369      1.0        1
       0.000       11.513      1.0        1
     180.000      356.108      1.0        1
     180.000      658.579      1.0        1
     180.000      838.024      1.0        1
     180.000      861.810      1.0        1
     180.000      726.303      1.0        1
     180.000      457.213      1.0        1
     180.000      104.533      1.0        1
      -0.000      264.874      1.0        1
      -0.000      587.266      1.0        1
       0.000      802.358      1.0        1
      -0.000      871.762      1.0        1
       0.000      783.683      1.0        1
       0.000      554.729      1.0        1
      -0.000      226.606      1.0        1
     180.000      139.618      1.0        1
     180.000      482.233      1.0        1
     180.000      738.618      1.0        1
     180.000      863.897      1.0        1
     180.000      836.662      1.0        1
     180.000      662.457      1.0        1
     180.000      372.492      1.0        1
     180.000       17.895      1.0        1
       0.000      337.407      1.0        1
       0.000      635.538      1.0        1
      -0.000      823.359      1.0        1
       0.000      869.134      1.0        1
      -0.000      765.739      1.0        1
       0.000      531.589      1.0        1
      -0.000      207.197      1.0        1
     180.000      149.965      1.0        1
     180.000      483.019      1.0        1
     180.000      734.010      1.0        1
     180.000      861.233      1.0        1
     180.000      844.048      1.0        1
     180.000      686.063      1.0        1
     180.000      414.242      1.0        1
     180.000       74.159      1.0        1
       0.000      275.746      1.0        1
       0.000      581.582      1.0        1
      -0.000      791.504      1.0        1
       0.000      871.756      1.0        1
       0.000      809.966      1.0        1
      -0.000      616.888      1.0        1
      -0.000      324.383      1.0        1
     180.000       17.969      1.0        1
     180.000      358.692      1.0        1
     180.000      641.379      1.0        1
     180.000      821.342      1.0        1
     180.000      870.583      1.0        1
     180.000      782.013      1.0        1
     180.000      570.309      1.0        1
     180.000      269.343      1.0        1
       0.000       71.363      1.0        1
      -0.000      402.202      1.0        1
       0.000      669.893      1.0        1
       0.000      833.380      1.0        1
       0.000      868.032      1.0        1
      -0.000      769.224      1.0        1
      -0.000      552.787      1.0        1
      -0.000      252.342      1.0        1
     180.000       84.039      1.0        1
     180.000      408.958      1.0        1
     180.000      671.517      1.0        1
     180.000      832.625      1.0        1
     180.000      868.732      1.0        1
     180.000      775.139      1.0        1
     180.000      566.456      1.0        1
     180.000      274.191      1.0        1
       0.000       56.114      1.0        1
       0.000      379.436      1.0        1
      -0.000      646.517      1.0        1
      -0.000      818.739      1.0        1
       0.000      871.616      1.0        1
       0.000      798.161      1.0        1
      -0.000      609.664      1.0        1
      -0.000      333.833      1.0        1
      -0.000       10.611      1.0        1
     180.000      311.676      1.0        1
     180.000      590.984      1.0        1
     180.000      786.066      1.0        1
     180.000      869.911      1.0        1
     180.000      831.380      1.0        1
     180.000      676.550      1.0        1
     180.000      427.647      1.0        1
     180.000      119.737      1.0        1
       0.000      202.288      1.0        1
      -0.000      497.724      1.0        1
       0.000      724.216      1.0        1
      -0.000      851.216      1.0        1
      -0.000      862.012      1.0        1
      -0.000      755.808      1.0        1
      -0.000      547.619      1.0        1
       0.000      266.036      1.0        1
     180.000       48.790      1.0        1
     180.000      358.373      1.0        1
     180.000      619.600      1.0        1
     180.000      798.163      1.0        1
     180.000      870.995      1.0        1
     180.000      829.145      1.0        1
     180.000      678.760      1.0        1
     180.000      440.077      1.0        1
     180.000      144.601      1.0        1
      -0.000      167.131      1.0        1
       0.000      458.608      1.0        1
      -0.000      690.572      1.0        1
       0.000      833.744      1.0        1
       0.000      870.433      1.0        1
       0.000      796.624      1.0        1
       0.000      622.292      1.0        1
      -0.000      369.953      1.0        1
      -0.000       71.669      1.0        1
     180.000      233.089      1.0        1
     180.000      510.175      1.0        1
     180.000      723.497      1.0        1
     180.000      847.163      1.0        1
     180.000      866.545      1.0        1
     180.000      779.908      1.0        1
     180.000      598.439      1.0        1
     180.000      344.704      1.0        1
     180.000       49.765      1.0        1
       0.000      248.684      1.0        1
       0.000      518.650      1.0        1
      -0.000      726.148      1.0        1
      -0.000      846.934      1.0        1
       0.000      867.270      1.0        1
      -0.000      785.383      1.0        1
       0.000      611.505      1.0        1
       0.000      366.501      1.0        1
      -0.000       79.290      1.0        1
     180.000      214.624      1.0        1
     180.000      485.084      1.0        1
     180.000      699.213      1.0        1
     180.000      832.896      1.0        1
     180.000      871.428      1.0        1
     180.000      811.044      1.0        1
     180.000      659.184      1.0        1
     180.000      433.486      1.0        1
     180.000      159.665      1.0        1
       0.000      129.476      1.0        1
       0.000      405.539      1.0        1
       0.000      636.140      1.0        1
      -0.000      796.218      1.0        1
       0.000      868.703      1.0        1
      -0.000      846.260      1.0        1
       0.000      731.938      1.0        1
      -0.000      538.682      1.0        1
      -0.000      287.793      1.0        1
      -0.000        6.515      1.0        1
     180.000      272.962      1.0        1
     180.000      524.757      1.0        1
     180.000      720.451      1.0        1
     180.000      839.823      1.0        1
     180.000      870.868      1.0        1
     180.000      810.931      1.0        1
     180.000      666.838      1.0        1
     180.000      454.038      1.0        1
     180.000      194.886      1.0        1
      -0.000       81.763      1.0        1
       0.000      351.362      1.0        1
       0.000      584.603      1.0        1
      -0.000      758.157      1.0        1
      -0.000      854.965      1.0        1
       0.000      865.848      1.0        1
      -0.000      790.302      1.0        1
       0.000      636.409      1.0        1
      -0.000      419.901      1.0        1
       0.000      162.495      1.0        1
     180.000      108.334      1.0        1
     180.000      369.900      1.0        1
     180.000      594.912      1.0        1
     180.000      761.898      1.0        1
     180.000      855.214      1.0        1
     180.000      866.441      1.0        1
     180.000      795.078      1.0        1
     180.000      648.461      1.0        1
     180.000      440.938      1.0        1
     180.000      192.414      1.0        1
      -0.000       71.606      1.0        1
      -0.000      330.263      1.0        1
      -0.000      557.670      1.0        1
       0.000      733.101      1.0        1
      -0.000      840.839      1.0        1
      -0.000      871.533      1.0        1
       0.000      822.942      1.0        1
      -0.000      700.020      1.0        1
       0.000      514.351      1.0        1
      -0.000      283.002      1.0        1
       0.000       26.905      1.0        1
     180.000      229.059      1.0        1
     180.000      466.121      1.0        1
     180.000      661.622      1.0        1
     180.000      798.781      1.0        1
     180.000      866.099      1.0        1
     180.000      858.258      1.0        1
     180.000      776.481      1.0        1
     180.000      628.313      1.0        1
     180.000      426.870      1.0        1
     180.000      189.629      1.0        1
       0.000       61.121      1.0        1
      -0.000      308.042      1.0        1
      -0.000      528.540      1.0        1
       0.000      704.478      1.0        1
      -0.000      821.632      1.0        1
      -0.000      870.795      1.0        1
       0.000      848.448      1.0        1
       0.000      756.948      1.0        1
      -0.000      604.234      1.0        1
      -0.000      403.086      1.0        1
      -0.000      170.015      1.0        1
     180.000       74.127      1.0        1
     180.000      313.686      1.0        1
     180.000      527.776      1.0        1
     180.000      699.758      1.0        1
     180.000      816.498      1.0        1
     180.000      869.336      1.0        1
     180.000      854.672      1.0        1
     180.000      774.156      1.0        1
     180.000      634.466      1.0        1
     180.000      446.708      1.0        1
     180.000      225.495      1.0        1
      -0.000       10.229      1.0        1
       0.000      246.497      1.0        1
      -0.000      463.685      1.0        1
       0.000      645.819      1.0        1
       0.000      779.725      1.0        1
      -0.000      855.947      1.0        1
       0.000      869.373      1.0        1
       0.000      819.525      1.0        1
       0.000      710.511      1.0        1
      -0.000      550.643      1.0        1
       0.000      351.760      1.0        1
       0.000      128.322      1.0        1
     180.000      101.667      1.0        1
     180.000      325.815      1.0        1
     180.000      526.500      1.0        1
     180.000      689.947      1.0        1
     180.000      805.145      1.0        1
     180.000      864.560      1.0        1
     180.000      864.581      1.0        1
     180.000      805.694      1.0        1
     180.000      692.372      1.0        1
     180.000      532.694      1.0        1
     180.000      337.734      1.0        1
     180.000      120.766      1.0        1
       0.000      101.662      1.0        1
      -0.000      318.713      1.0        1
       0.000      514.240      1.0        1
      -0.000      675.696      1.0        1
      -0.000      792.918      1.0        1
      -0.000      858.736      1.0        1
       0.000      869.373      1.0        1
      -0.000      824.623      1.0        1
      -0.000      727.788      1.0        1
       0.000      585.405      1.0        1
      -0.000      406.769      1.0        1
      -0.000      203.299      1.0        1
     180.000       10.213      1.0        1
     180.000      224.418      1.0        1
     180.000      424.240      1.0        1
     180.000      597.667      1.0        1
     180.000      734.456      1.0        1
     180.000      826.717      1.0        1
     180.000      869.335      1.0        1
     180.000      860.219      1.0        1
     180.000      800.365      1.0        1
     180.000      693.731      1.0        1
     180.000      546.946      1.0        1
     180.000      368.872      1.0        1
     180.000      170.041      1.0        1
      -0.000       35.982      1.0        1
      -0.000      241.282      1.0        1
       0.000      432.275      1.0        1
      -0.000      598.358      1.0        1
      -0.000      730.482      1.0        1
       0.000      821.621      1.0        1
       0.000      867.124      1.0        1
       0.000      864.912      1.0        1
      -0.000      815.546      1.0        1
       0.000      722.135      1.0        1
       0.000      590.114      1.0        1
       0.000      426.902      1.0        1
       0.000      241.465      1.0        1
       0.000       43.805      1.0        1
     180.000      153.590      1.0        1
     180.000      344.305      1.0        1
     180.000      516.537      1.0        1
     180.000      661.594      1.0        1
     180.000      772.312      1.0        1
     180.000      843.388      1.0        1
     180.000      871.613      1.0        1
