# Pbox  30000.00  34 4095  0.0     0    1.0000 1.44091     6
# VJ4.2  pw (us)  pwr  pwrf  dres  dmf  dcyc   B1max (kHz)  Stype
# ---------------------------------------------------------------
# Pxsim 0.0300000 1319.9453 0.000 184729.2 0.0000000 0.0000000 0.00
# data: pw (s) B1max (Hz) status sw (Hz) T1 (s)   T2 (s) RDC (Hz)
# ---------------------------------------------------------------
# Pbox.inp data :
# ~~~~~~~~~~~~~~~~~~~~~~~~~~~Waves~~~~~~~~~~~~~~~~~~~~~~~~~~~~~~~~~~
#   shape   bw(/pw)   ofs  st  ph  fla  trev  d1  d2   d0   wrp  php
# ~~~~~~~~~~~~~~~~~~~~~~~~~~~~~~~~~~~~~~~~~~~~~~~~~~~~~~~~~~~~~~~~~~
# { wurst2i 30788.2/0.0300000 }
#
# type      = r          mod       = n          dres      = n         
# steps     = n          stepsize  = 10.00      attn      = i         
# refofs    = n          wrap      = n          sfrq      = n         
# sucyc     = d          reps      = 2          header    = y         
# bscor     = n          pad1      = n          pad2      = n         
# bsim      = n          T1        = n          T2        = n         
# rdc       = n          dcyc      = n          sw        = n         
#
# RF Calibration Data :  ref_pwr   = 61         ref_pw90  = 7.75
# ~~~~~~~~~~~~~~~~~~~~~
###
# ------------------- Shape data ------------------
# pwtot      = 0.0300000 (total pw, s)
# power      = 34 (power level, dB)
# pwrf       = 4095 (fine power)
# B1max      = 1.4409 (B1max, kHz)
# B1rms      = 0.8082 (B1[RMS], kHz)
# nptot      = 3000 (total number of steps)
# stepsize   = 10.00 (length of a single step, us)
# maxamp     = 938.0 (max amplitude)
# ------------------------------------------------- 
#      phase      amplitude   length     gate 
# ------------------------------------------------- 
        0.00      1023.00      0.0        0
       0.000        0.000      1.0        0
     110.990        0.000      1.0        0
     166.427        0.000      1.0        0
     221.864        0.000      1.0        0
     277.302        0.000      1.0        0
     332.739        0.000      1.0        0
      28.176        0.000      1.0        0
      83.613        0.000      1.0        0
     139.050        0.000      1.0        0
     194.488        0.000      1.0        0
     249.925        0.000      1.0        0
     305.362        0.000      1.0        0
       0.799        0.000      1.0        0
      56.237        0.000      1.0        0
     111.674        0.000      1.0        0
     167.111        0.000      1.0        0
     222.548        0.000      1.0        0
     277.986        0.000      1.0        0
     333.423        0.000      1.0        0
      28.860        0.000      1.0        0
      84.297        0.000      1.0        0
     139.735        0.000      1.0        0
     195.172        0.000      1.0        0
     250.609        0.000      1.0        1
     306.046        0.000      1.0        1
       1.484        0.000      1.0        1
      56.921        0.000      1.0        1
     112.358        0.000      1.0        1
     167.795        0.000      1.0        1
     223.232        0.000      1.0        1
     278.670        0.000      1.0        1
     334.107        0.000      1.0        1
      29.544        0.054      1.0        1
      84.981        0.121      1.0        1
     140.419        0.189      1.0        1
     195.856        0.260      1.0        1
     251.293        0.333      1.0        1
     306.730        0.408      1.0        1
       2.168        0.486      1.0        1
      57.605        0.565      1.0        1
     113.042        0.646      1.0        1
     168.479        0.729      1.0        1
     223.917        0.815      1.0        1
     279.354        0.902      1.0        1
     334.791        0.991      1.0        1
      30.228        1.083      1.0        1
      85.666        1.176      1.0        1
     141.103        1.272      1.0        1
     196.540        1.370      1.0        1
     251.977        1.469      1.0        1
     307.414        1.571      1.0        1
       2.852        1.675      1.0        1
      58.289        1.781      1.0        1
     113.726        1.888      1.0        1
     169.163        1.998      1.0        1
     224.601        2.110      1.0        1
     280.038        2.224      1.0        1
     335.475        2.340      1.0        1
      30.912        2.458      1.0        1
      86.350        2.579      1.0        1
     141.787        2.701      1.0        1
     197.224        2.825      1.0        1
     252.661        2.951      1.0        1
     308.098        3.080      1.0        1
       3.536        3.210      1.0        1
      58.973        3.342      1.0        1
     114.410        3.477      1.0        1
     169.847        3.613      1.0        1
     225.284        3.752      1.0        1
     280.722        3.892      1.0        1
     336.159        4.035      1.0        1
      31.596        4.179      1.0        1
      87.033        4.326      1.0        1
     142.470        4.475      1.0        1
     197.908        4.625      1.0        1
     253.345        4.778      1.0        1
     308.782        4.933      1.0        1
       4.219        5.090      1.0        1
      59.656        5.249      1.0        1
     115.093        5.410      1.0        1
     170.531        5.572      1.0        1
     225.968        5.737      1.0        1
     281.405        5.904      1.0        1
     336.842        6.073      1.0        1
      32.279        6.244      1.0        1
      87.716        6.417      1.0        1
     143.154        6.593      1.0        1
     198.591        6.770      1.0        1
     254.028        6.949      1.0        1
     309.465        7.130      1.0        1
       4.902        7.313      1.0        1
      60.339        7.498      1.0        1
     115.776        7.686      1.0        1
     171.213        7.875      1.0        1
     226.650        8.066      1.0        1
     282.087        8.259      1.0        1
     337.524        8.455      1.0        1
      32.961        8.652      1.0        1
      88.399        8.851      1.0        1
     143.836        9.053      1.0        1
     199.273        9.256      1.0        1
     254.710        9.461      1.0        1
     310.147        9.669      1.0        1
       5.583        9.878      1.0        1
      61.020       10.090      1.0        1
     116.457       10.303      1.0        1
     171.894       10.518      1.0        1
     227.331       10.736      1.0        1
     282.768       10.955      1.0        1
     338.205       11.177      1.0        1
      33.642       11.400      1.0        1
      89.079       11.626      1.0        1
     144.516       11.853      1.0        1
     199.952       12.083      1.0        1
     255.389       12.314      1.0        1
     310.826       12.547      1.0        1
       6.263       12.783      1.0        1
      61.699       13.020      1.0        1
     117.136       13.260      1.0        1
     172.573       13.501      1.0        1
     228.010       13.745      1.0        1
     283.446       13.990      1.0        1
     338.883       14.238      1.0        1
      34.319       14.487      1.0        1
      89.756       14.739      1.0        1
     145.192       14.992      1.0        1
     200.629       15.247      1.0        1
     256.065       15.505      1.0        1
     311.502       15.764      1.0        1
       6.938       16.025      1.0        1
      62.375       16.289      1.0        1
     117.811       16.554      1.0        1
     173.247       16.821      1.0        1
     228.684       17.091      1.0        1
     284.120       17.362      1.0        1
     339.556       17.635      1.0        1
      34.992       17.910      1.0        1
      90.428       18.188      1.0        1
     145.864       18.467      1.0        1
     201.300       18.748      1.0        1
     256.736       19.031      1.0        1
     312.172       19.316      1.0        1
       7.608       19.603      1.0        1
      63.044       19.892      1.0        1
     118.480       20.183      1.0        1
     173.916       20.476      1.0        1
     229.351       20.771      1.0        1
     284.787       21.068      1.0        1
     340.223       21.367      1.0        1
      35.658       21.668      1.0        1
      91.094       21.970      1.0        1
     146.529       22.275      1.0        1
     201.965       22.582      1.0        1
     257.400       22.891      1.0        1
     312.835       23.201      1.0        1
       8.270       23.514      1.0        1
      63.705       23.828      1.0        1
     119.140       24.145      1.0        1
     174.575       24.463      1.0        1
     230.010       24.783      1.0        1
     285.445       25.106      1.0        1
     340.880       25.430      1.0        1
      36.314       25.756      1.0        1
      91.749       26.084      1.0        1
     147.184       26.414      1.0        1
     202.618       26.746      1.0        1
     258.052       27.080      1.0        1
     313.487       27.416      1.0        1
       8.921       27.754      1.0        1
      64.355       28.094      1.0        1
     119.789       28.435      1.0        1
     175.223       28.779      1.0        1
     230.656       29.124      1.0        1
     286.090       29.472      1.0        1
     341.524       29.821      1.0        1
      36.957       30.172      1.0        1
      92.390       30.526      1.0        1
     147.824       30.881      1.0        1
     203.257       31.238      1.0        1
     258.690       31.597      1.0        1
     314.123       31.958      1.0        1
       9.555       32.320      1.0        1
      64.988       32.685      1.0        1
     120.421       33.052      1.0        1
     175.853       33.420      1.0        1
     231.285       33.791      1.0        1
     286.717       34.163      1.0        1
     342.149       34.537      1.0        1
      37.581       34.914      1.0        1
      93.013       35.292      1.0        1
     148.444       35.672      1.0        1
     203.876       36.053      1.0        1
     259.307       36.437      1.0        1
     314.738       36.823      1.0        1
      10.169       37.210      1.0        1
      65.600       37.600      1.0        1
     121.030       37.991      1.0        1
     176.461       38.384      1.0        1
     231.891       38.779      1.0        1
     287.321       39.176      1.0        1
     342.751       39.575      1.0        1
      38.181       39.976      1.0        1
      93.610       40.379      1.0        1
     149.040       40.783      1.0        1
     204.469       41.189      1.0        1
     259.898       41.598      1.0        1
     315.326       42.008      1.0        1
      10.755       42.420      1.0        1
      66.183       42.834      1.0        1
     121.611       43.249      1.0        1
     177.039       43.667      1.0        1
     232.467       44.086      1.0        1
     287.894       44.508      1.0        1
     343.321       44.931      1.0        1
      38.748       45.356      1.0        1
      94.175       45.783      1.0        1
     149.602       46.211      1.0        1
     205.028       46.642      1.0        1
     260.454       47.074      1.0        1
     315.879       47.509      1.0        1
      11.305       47.945      1.0        1
      66.730       48.383      1.0        1
     122.155       48.823      1.0        1
     177.580       49.264      1.0        1
     233.004       49.708      1.0        1
     288.428       50.153      1.0        1
     343.852       50.600      1.0        1
      39.275       51.049      1.0        1
      94.698       51.500      1.0        1
     150.121       51.953      1.0        1
     205.544       52.407      1.0        1
     260.966       52.864      1.0        1
     316.388       53.322      1.0        1
      11.809       53.782      1.0        1
      67.231       54.243      1.0        1
     122.652       54.707      1.0        1
     178.072       55.172      1.0        1
     233.492       55.640      1.0        1
     288.912       56.109      1.0        1
     344.331       56.579      1.0        1
      39.751       57.052      1.0        1
      95.169       57.526      1.0        1
     150.588       58.003      1.0        1
     206.006       58.481      1.0        1
     261.423       58.961      1.0        1
     316.840       59.442      1.0        1
      12.257       59.926      1.0        1
      67.673       60.411      1.0        1
     123.089       60.898      1.0        1
     178.505       61.387      1.0        1
     233.920       61.877      1.0        1
     289.334       62.370      1.0        1
     344.748       62.864      1.0        1
      40.162       63.360      1.0        1
      95.575       63.857      1.0        1
     150.988       64.357      1.0        1
     206.400       64.858      1.0        1
     261.812       65.361      1.0        1
     317.223       65.866      1.0        1
      12.634       66.372      1.0        1
      68.044       66.881      1.0        1
     123.454       67.391      1.0        1
     178.863       67.902      1.0        1
     234.272       68.416      1.0        1
     289.680       68.931      1.0        1
     345.088       69.448      1.0        1
      40.495       69.967      1.0        1
      95.901       70.488      1.0        1
     151.307       71.010      1.0        1
     206.712       71.534      1.0        1
     262.117       72.060      1.0        1
     317.521       72.588      1.0        1
      12.925       73.117      1.0        1
      68.328       73.648      1.0        1
     123.730       74.181      1.0        1
     179.132       74.715      1.0        1
     234.533       75.251      1.0        1
     289.933       75.789      1.0        1
     345.333       76.329      1.0        1
      40.732       76.870      1.0        1
      96.130       77.413      1.0        1
     151.528       77.958      1.0        1
     206.925       78.505      1.0        1
     262.321       79.053      1.0        1
     317.717       79.603      1.0        1
      13.111       80.154      1.0        1
      68.506       80.708      1.0        1
     123.899       81.263      1.0        1
     179.291       81.820      1.0        1
     234.683       82.378      1.0        1
     290.074       82.938      1.0        1
     345.465       83.500      1.0        1
      40.854       84.063      1.0        1
      96.243       84.629      1.0        1
     151.630       85.195      1.0        1
     207.017       85.764      1.0        1
     262.403       86.334      1.0        1
     317.789       86.906      1.0        1
      13.173       87.480      1.0        1
      68.557       88.055      1.0        1
     123.939       88.632      1.0        1
     179.321       89.210      1.0        1
     234.702       89.791      1.0        1
     290.082       90.373      1.0        1
     345.461       90.956      1.0        1
      40.839       91.541      1.0        1
      96.216       92.128      1.0        1
     151.592       92.717      1.0        1
     206.967       93.307      1.0        1
     262.341       93.899      1.0        1
     317.714       94.492      1.0        1
      13.086       95.087      1.0        1
      68.457       95.684      1.0        1
     123.827       96.282      1.0        1
     179.196       96.882      1.0        1
     234.564       97.484      1.0        1
     289.931       98.087      1.0        1
     345.297       98.692      1.0        1
      40.661       99.299      1.0        1
      96.025       99.907      1.0        1
     151.387      100.516      1.0        1
     206.748      101.128      1.0        1
     262.108      101.741      1.0        1
     317.467      102.355      1.0        1
      12.824      102.971      1.0        1
      68.181      103.589      1.0        1
     123.536      104.208      1.0        1
     178.890      104.829      1.0        1
     234.243      105.452      1.0        1
     289.594      106.076      1.0        1
     344.944      106.702      1.0        1
      40.293      107.329      1.0        1
      95.640      107.958      1.0        1
     150.987      108.589      1.0        1
     206.331      109.221      1.0        1
     261.675      109.854      1.0        1
     317.017      110.490      1.0        1
      12.358      111.126      1.0        1
      67.697      111.765      1.0        1
     123.035      112.405      1.0        1
     178.371      113.046      1.0        1
     233.706      113.689      1.0        1
     289.040      114.334      1.0        1
     344.372      114.980      1.0        1
      39.702      115.627      1.0        1
      95.031      116.277      1.0        1
     150.358      116.927      1.0        1
     205.684      117.580      1.0        1
     261.009      118.234      1.0        1
     316.331      118.889      1.0        1
      11.652      119.546      1.0        1
      66.972      120.204      1.0        1
     122.290      120.864      1.0        1
     177.606      121.526      1.0        1
     232.920      122.189      1.0        1
     288.233      122.853      1.0        1
     343.544      123.519      1.0        1
      38.853      124.187      1.0        1
      94.161      124.856      1.0        1
     149.467      125.527      1.0        1
     204.771      126.199      1.0        1
     260.073      126.872      1.0        1
     315.373      127.547      1.0        1
      10.672      128.224      1.0        1
      65.968      128.902      1.0        1
     121.263      129.582      1.0        1
     176.556      130.263      1.0        1
     231.847      130.945      1.0        1
     287.136      131.629      1.0        1
     342.423      132.315      1.0        1
      37.707      133.002      1.0        1
      92.990      133.690      1.0        1
     148.271      134.380      1.0        1
     203.550      135.071      1.0        1
     258.827      135.764      1.0        1
     314.102      136.458      1.0        1
       9.374      137.154      1.0        1
      64.645      137.851      1.0        1
     119.913      138.550      1.0        1
     175.179      139.250      1.0        1
     230.443      139.952      1.0        1
     285.705      140.655      1.0        1
     340.964      141.359      1.0        1
      36.221      142.065      1.0        1
      91.476      142.772      1.0        1
     146.729      143.481      1.0        1
     201.979      144.191      1.0        1
     257.227      144.902      1.0        1
     312.472      145.615      1.0        1
       7.715      146.330      1.0        1
      62.956      147.046      1.0        1
     118.194      147.763      1.0        1
     173.430      148.481      1.0        1
     228.663      149.201      1.0        1
     283.894      149.923      1.0        1
     339.122      150.646      1.0        1
      34.347      151.370      1.0        1
      89.570      152.095      1.0        1
     144.790      152.822      1.0        1
     200.008      153.551      1.0        1
     255.223      154.280      1.0        1
     310.435      155.012      1.0        1
       5.645      155.744      1.0        1
      60.852      156.478      1.0        1
     116.056      157.213      1.0        1
     171.257      157.950      1.0        1
     226.455      158.688      1.0        1
     281.651      159.427      1.0        1
     336.843      160.168      1.0        1
      32.033      160.910      1.0        1
      87.220      161.653      1.0        1
     142.404      162.398      1.0        1
     197.584      163.144      1.0        1
