# Pbox  30000.00  34 4095  0.0     0    1.0000 1.56036     6
# VJ4.2  pw (us)  pwr  pwrf  dres  dmf  dcyc   B1max (kHz)  Stype
# ---------------------------------------------------------------
# Pxsim 0.0300000 1525.3935 0.000 246710.4 0.0000000 0.0000000 0.00
# data: pw (s) B1max (Hz) status sw (Hz) T1 (s)   T2 (s) RDC (Hz)
# ---------------------------------------------------------------
# Pbox.inp data :
# ~~~~~~~~~~~~~~~~~~~~~~~~~~~Waves~~~~~~~~~~~~~~~~~~~~~~~~~~~~~~~~~~
#   shape   bw(/pw)   ofs  st  ph  fla  trev  d1  d2   d0   wrp  php
# ~~~~~~~~~~~~~~~~~~~~~~~~~~~~~~~~~~~~~~~~~~~~~~~~~~~~~~~~~~~~~~~~~~
# { wurst2i 41118.4/0.0300000 }
#
# type      = r          mod       = n          dres      = n         
# steps     = n          stepsize  = 10.00      attn      = i         
# refofs    = n          wrap      = n          sfrq      = n         
# sucyc     = d          reps      = 2          header    = y         
# bscor     = n          pad1      = n          pad2      = n         
# bsim      = n          T1        = n          T2        = n         
# rdc       = n          dcyc      = n          sw        = n         
#
# RF Calibration Data :  ref_pwr   = 60         ref_pw90  = 8.03
# ~~~~~~~~~~~~~~~~~~~~~
###
# ------------------- Shape data ------------------
# pwtot      = 0.0300000 (total pw, s)
# power      = 34 (power level, dB)
# pwrf       = 4095 (fine power)
# B1max      = 1.5604 (B1max, kHz)
# B1rms      = 0.9340 (B1[RMS], kHz)
# nptot      = 3000 (total number of steps)
# stepsize   = 10.00 (length of a single step, us)
# maxamp     = 1001.1 (max amplitude)
# ------------------------------------------------- 
#      phase      amplitude   length     gate 
# ------------------------------------------------- 
        0.00      1023.00      0.0        0
       0.000        0.000      1.0        0
     247.810        0.000      1.0        0
     321.848        0.000      1.0        0
      35.886        0.000      1.0        0
     109.924        0.000      1.0        0
     183.961        0.000      1.0        0
     257.999        0.000      1.0        0
     332.037        0.000      1.0        0
      46.075        0.000      1.0        0
     120.112        0.000      1.0        0
     194.150        0.000      1.0        0
     268.188        0.000      1.0        0
     342.226        0.000      1.0        0
      56.264        0.000      1.0        0
     130.301        0.000      1.0        0
     204.339        0.000      1.0        0
     278.377        0.000      1.0        0
     352.415        0.000      1.0        0
      66.453        0.000      1.0        0
     140.490        0.000      1.0        0
     214.528        0.000      1.0        0
     288.566        0.000      1.0        0
       2.604        0.000      1.0        1
      76.642        0.000      1.0        1
     150.679        0.000      1.0        1
     224.717        0.000      1.0        1
     298.755        0.000      1.0        1
      12.793        0.000      1.0        1
      86.831        0.000      1.0        1
     160.868        0.000      1.0        1
     234.906        0.000      1.0        1
     308.944        0.055      1.0        1
      22.982        0.124      1.0        1
      97.020        0.196      1.0        1
     171.057        0.269      1.0        1
     245.095        0.345      1.0        1
     319.133        0.423      1.0        1
      33.171        0.503      1.0        1
     107.209        0.585      1.0        1
     181.246        0.670      1.0        1
     255.284        0.757      1.0        1
     329.322        0.845      1.0        1
      43.360        0.937      1.0        1
     117.398        1.030      1.0        1
     191.435        1.125      1.0        1
     265.473        1.223      1.0        1
     339.511        1.323      1.0        1
      53.549        1.425      1.0        1
     127.587        1.529      1.0        1
     201.624        1.635      1.0        1
     275.662        1.744      1.0        1
     349.700        1.855      1.0        1
      63.738        1.967      1.0        1
     137.776        2.083      1.0        1
     211.813        2.200      1.0        1
     285.851        2.319      1.0        1
     359.889        2.441      1.0        1
      73.927        2.565      1.0        1
     147.964        2.691      1.0        1
     222.002        2.819      1.0        1
     296.040        2.949      1.0        1
      10.078        3.082      1.0        1
      84.116        3.217      1.0        1
     158.153        3.354      1.0        1
     232.191        3.493      1.0        1
     306.229        3.634      1.0        1
      20.267        3.777      1.0        1
      94.304        3.923      1.0        1
     168.342        4.071      1.0        1
     242.380        4.221      1.0        1
     316.418        4.373      1.0        1
      30.455        4.527      1.0        1
     104.493        4.684      1.0        1
     178.531        4.843      1.0        1
     252.569        5.003      1.0        1
     326.606        5.166      1.0        1
      40.644        5.332      1.0        1
     114.682        5.499      1.0        1
     188.719        5.668      1.0        1
     262.757        5.840      1.0        1
     336.795        6.014      1.0        1
      50.833        6.190      1.0        1
     124.870        6.368      1.0        1
     198.908        6.549      1.0        1
     272.946        6.731      1.0        1
     346.983        6.916      1.0        1
      61.021        7.103      1.0        1
     135.059        7.292      1.0        1
     209.096        7.483      1.0        1
     283.134        7.676      1.0        1
     357.171        7.872      1.0        1
      71.209        8.069      1.0        1
     145.247        8.269      1.0        1
     219.284        8.471      1.0        1
     293.322        8.675      1.0        1
       7.359        8.881      1.0        1
      81.397        9.090      1.0        1
     155.434        9.300      1.0        1
     229.472        9.513      1.0        1
     303.509        9.728      1.0        1
      17.547        9.945      1.0        1
      91.584       10.164      1.0        1
     165.622       10.385      1.0        1
     239.659       10.609      1.0        1
     313.697       10.835      1.0        1
      27.734       11.062      1.0        1
     101.772       11.292      1.0        1
     175.809       11.524      1.0        1
     249.846       11.758      1.0        1
     323.884       11.995      1.0        1
      37.921       12.233      1.0        1
     111.958       12.474      1.0        1
     185.995       12.717      1.0        1
     260.033       12.961      1.0        1
     334.070       13.209      1.0        1
      48.107       13.458      1.0        1
     122.144       13.709      1.0        1
     196.181       13.962      1.0        1
     270.218       14.218      1.0        1
     344.255       14.476      1.0        1
      58.293       14.735      1.0        1
     132.330       14.997      1.0        1
     206.366       15.261      1.0        1
     280.403       15.528      1.0        1
     354.440       15.796      1.0        1
      68.477       16.066      1.0        1
     142.514       16.339      1.0        1
     216.551       16.614      1.0        1
     290.588       16.890      1.0        1
       4.624       17.169      1.0        1
      78.661       17.450      1.0        1
     152.697       17.734      1.0        1
     226.734       18.019      1.0        1
     300.771       18.306      1.0        1
      14.807       18.596      1.0        1
      88.843       18.887      1.0        1
     162.880       19.181      1.0        1
     236.916       19.477      1.0        1
     310.952       19.775      1.0        1
      24.989       20.075      1.0        1
      99.025       20.377      1.0        1
     173.061       20.681      1.0        1
     247.097       20.987      1.0        1
     321.133       21.296      1.0        1
      35.169       21.606      1.0        1
     109.204       21.919      1.0        1
     183.240       22.234      1.0        1
     257.276       22.551      1.0        1
     331.312       22.870      1.0        1
      45.347       23.191      1.0        1
     119.383       23.514      1.0        1
     193.418       23.839      1.0        1
     267.453       24.166      1.0        1
     341.488       24.496      1.0        1
      55.524       24.827      1.0        1
     129.559       25.161      1.0        1
     203.594       25.496      1.0        1
     277.628       25.834      1.0        1
     351.663       26.174      1.0        1
      65.698       26.516      1.0        1
     139.732       26.860      1.0        1
     213.767       27.206      1.0        1
     287.801       27.554      1.0        1
       1.835       27.904      1.0        1
      75.870       28.256      1.0        1
     149.904       28.610      1.0        1
     223.938       28.967      1.0        1
     297.971       29.325      1.0        1
      12.005       29.686      1.0        1
      86.039       30.048      1.0        1
     160.072       30.413      1.0        1
     234.105       30.779      1.0        1
     308.139       31.148      1.0        1
      22.172       31.519      1.0        1
      96.204       31.892      1.0        1
     170.237       32.267      1.0        1
     244.270       32.644      1.0        1
     318.302       33.023      1.0        1
      32.335       33.404      1.0        1
     106.367       33.787      1.0        1
     180.399       34.172      1.0        1
     254.431       34.559      1.0        1
     328.462       34.948      1.0        1
      42.494       35.340      1.0        1
     116.525       35.733      1.0        1
     190.556       36.128      1.0        1
     264.587       36.526      1.0        1
     338.618       36.925      1.0        1
      52.648       37.326      1.0        1
     126.679       37.730      1.0        1
     200.709       38.135      1.0        1
     274.739       38.543      1.0        1
     348.769       38.952      1.0        1
      62.798       39.364      1.0        1
     136.828       39.778      1.0        1
     210.857       40.193      1.0        1
     284.886       40.611      1.0        1
     358.915       41.030      1.0        1
      72.943       41.452      1.0        1
     146.971       41.876      1.0        1
     220.999       42.301      1.0        1
     295.027       42.729      1.0        1
       9.054       43.159      1.0        1
      83.082       43.590      1.0        1
     157.109       44.024      1.0        1
     231.135       44.460      1.0        1
     305.162       44.897      1.0        1
      19.188       45.337      1.0        1
      93.214       45.779      1.0        1
     167.239       46.222      1.0        1
     241.265       46.668      1.0        1
     315.290       47.116      1.0        1
      29.314       47.565      1.0        1
     103.339       48.017      1.0        1
     177.363       48.470      1.0        1
     251.387       48.926      1.0        1
     325.410       49.383      1.0        1
      39.433       49.843      1.0        1
     113.456       50.304      1.0        1
     187.478       50.768      1.0        1
     261.500       51.233      1.0        1
     335.522       51.701      1.0        1
      49.543       52.170      1.0        1
     123.564       52.641      1.0        1
     197.585       53.115      1.0        1
     271.605       53.590      1.0        1
     345.625       54.067      1.0        1
      59.644       54.546      1.0        1
     133.663       55.027      1.0        1
     207.682       55.510      1.0        1
     281.700       55.995      1.0        1
     355.718       56.482      1.0        1
      69.735       56.971      1.0        1
     143.752       57.462      1.0        1
     217.768       57.955      1.0        1
     291.784       58.450      1.0        1
       5.800       58.946      1.0        1
      79.815       59.445      1.0        1
     153.829       59.945      1.0        1
     227.843       60.448      1.0        1
     301.857       60.952      1.0        1
      15.870       61.459      1.0        1
      89.882       61.967      1.0        1
     163.894       62.477      1.0        1
     237.906       62.989      1.0        1
     311.917       63.503      1.0        1
      25.927       64.019      1.0        1
      99.937       64.537      1.0        1
     173.946       65.056      1.0        1
     247.955       65.578      1.0        1
     321.963       66.102      1.0        1
      35.971       66.627      1.0        1
     109.977       67.154      1.0        1
     183.984       67.684      1.0        1
     257.990       68.215      1.0        1
     331.995       68.748      1.0        1
      45.999       69.283      1.0        1
     120.003       69.819      1.0        1
     194.006       70.358      1.0        1
     268.008       70.899      1.0        1
     342.010       71.441      1.0        1
      56.011       71.986      1.0        1
     130.012       72.532      1.0        1
     204.011       73.080      1.0        1
     278.010       73.630      1.0        1
     352.008       74.182      1.0        1
      66.006       74.735      1.0        1
     140.003       75.291      1.0        1
     213.999       75.848      1.0        1
     287.994       76.408      1.0        1
       1.988       76.969      1.0        1
      75.982       77.532      1.0        1
     149.975       78.096      1.0        1
     223.967       78.663      1.0        1
     297.958       79.232      1.0        1
      11.948       79.802      1.0        1
      85.937       80.374      1.0        1
     159.926       80.948      1.0        1
     233.914       81.524      1.0        1
     307.900       82.102      1.0        1
      21.886       82.682      1.0        1
      95.871       83.263      1.0        1
     169.855       83.846      1.0        1
     243.838       84.431      1.0        1
     317.820       85.018      1.0        1
      31.802       85.607      1.0        1
     105.782       86.197      1.0        1
     179.761       86.790      1.0        1
     253.739       87.384      1.0        1
     327.716       87.980      1.0        1
      41.692       88.578      1.0        1
     115.667       89.177      1.0        1
     189.641       89.778      1.0        1
     263.614       90.382      1.0        1
     337.586       90.987      1.0        1
      51.557       91.593      1.0        1
     125.526       92.202      1.0        1
     199.495       92.812      1.0        1
     273.462       93.424      1.0        1
     347.428       94.038      1.0        1
      61.393       94.654      1.0        1
     135.356       95.271      1.0        1
     209.319       95.890      1.0        1
     283.280       96.511      1.0        1
     357.240       97.134      1.0        1
      71.199       97.759      1.0        1
     145.156       98.385      1.0        1
     219.112       99.013      1.0        1
     293.067       99.643      1.0        1
       7.021      100.274      1.0        1
      80.973      100.908      1.0        1
     154.924      101.543      1.0        1
     228.873      102.180      1.0        1
     302.821      102.818      1.0        1
      16.768      103.459      1.0        1
      90.713      104.101      1.0        1
     164.656      104.744      1.0        1
     238.599      105.390      1.0        1
     312.539      106.037      1.0        1
      26.479      106.686      1.0        1
     100.416      107.337      1.0        1
     174.353      107.989      1.0        1
     248.287      108.643      1.0        1
     322.220      109.299      1.0        1
      36.152      109.957      1.0        1
     110.081      110.616      1.0        1
     184.010      111.277      1.0        1
     257.936      111.940      1.0        1
     331.861      112.604      1.0        1
      45.784      113.270      1.0        1
     119.706      113.938      1.0        1
     193.625      114.607      1.0        1
     267.543      115.278      1.0        1
     341.459      115.951      1.0        1
      55.374      116.626      1.0        1
     129.286      117.302      1.0        1
     203.197      117.980      1.0        1
     277.106      118.660      1.0        1
     351.013      119.341      1.0        1
      64.918      120.024      1.0        1
     138.821      120.708      1.0        1
     212.722      121.394      1.0        1
     286.621      122.082      1.0        1
       0.519      122.772      1.0        1
      74.414      123.463      1.0        1
     148.307      124.156      1.0        1
     222.198      124.850      1.0        1
     296.087      125.547      1.0        1
       9.974      126.244      1.0        1
      83.859      126.944      1.0        1
     157.742      127.645      1.0        1
     231.622      128.348      1.0        1
     305.500      129.052      1.0        1
      19.377      129.758      1.0        1
      93.250      130.465      1.0        1
     167.122      131.175      1.0        1
     240.991      131.885      1.0        1
     314.858      132.598      1.0        1
      28.723      133.312      1.0        1
     102.585      134.027      1.0        1
     176.445      134.745      1.0        1
     250.302      135.464      1.0        1
     324.157      136.184      1.0        1
      38.010      136.906      1.0        1
     111.860      137.630      1.0        1
     185.707      138.355      1.0        1
     259.552      139.082      1.0        1
     333.394      139.810      1.0        1
      47.234      140.540      1.0        1
     121.071      141.272      1.0        1
     194.906      142.005      1.0        1
     268.737      142.739      1.0        1
     342.566      143.476      1.0        1
      56.393      144.213      1.0        1
     130.216      144.953      1.0        1
     204.037      145.694      1.0        1
     277.855      146.436      1.0        1
     351.670      147.180      1.0        1
      65.482      147.926      1.0        1
     139.291      148.673      1.0        1
     213.098      149.422      1.0        1
     286.901      150.172      1.0        1
       0.701      150.923      1.0        1
      74.498      151.677      1.0        1
     148.293      152.431      1.0        1
     222.084      153.188      1.0        1
     295.872      153.946      1.0        1
       9.657      154.705      1.0        1
      83.438      155.466      1.0        1
     157.217      156.228      1.0        1
     230.992      156.992      1.0        1
     304.764      157.757      1.0        1
      18.533      158.524      1.0        1
      92.298      159.293      1.0        1
     166.060      160.063      1.0        1
     239.818      160.834      1.0        1
     313.573      161.607      1.0        1
      27.325      162.381      1.0        1
     101.073      163.157      1.0        1
     174.817      163.934      1.0        1
     248.558      164.713      1.0        1
     322.296      165.493      1.0        1
      36.029      166.275      1.0        1
     109.759      167.058      1.0        1
     183.486      167.843      1.0        1
     257.208      168.629      1.0        1
     330.927      169.416      1.0        1
      44.642      170.205      1.0        1
     118.353      170.996      1.0        1
     192.060      171.788      1.0        1
     265.764      172.581      1.0        1
     339.463      173.376      1.0        1
      53.158      174.172      1.0        1
