# Pbox  30000.00  33 4095  0.0     0    1.0000 1.39067     6
# VJ4.2  pw (us)  pwr  pwrf  dres  dmf  dcyc   B1max (kHz)  Stype
# ---------------------------------------------------------------
# Pxsim 0.0300000 1343.3095 0.000 191326.8 0.0000000 0.0000000 0.00
# data: pw (s) B1max (Hz) status sw (Hz) T1 (s)   T2 (s) RDC (Hz)
# ---------------------------------------------------------------
# Pbox.inp data :
# ~~~~~~~~~~~~~~~~~~~~~~~~~~~Waves~~~~~~~~~~~~~~~~~~~~~~~~~~~~~~~~~~
#   shape   bw(/pw)   ofs  st  ph  fla  trev  d1  d2   d0   wrp  php
# ~~~~~~~~~~~~~~~~~~~~~~~~~~~~~~~~~~~~~~~~~~~~~~~~~~~~~~~~~~~~~~~~~~
# { wurst2i 31887.8/0.0300000 }
#
# type      = r          mod       = n          dres      = n         
# steps     = n          stepsize  = 10.00      attn      = i         
# refofs    = n          wrap      = n          sfrq      = n         
# sucyc     = d          reps      = 2          header    = y         
# bscor     = n          pad1      = n          pad2      = n         
# bsim      = n          T1        = n          T2        = n         
# rdc       = n          dcyc      = n          sw        = n         
#
# RF Calibration Data :  ref_pwr   = 60         ref_pw90  = 8.03
# ~~~~~~~~~~~~~~~~~~~~~
###
# ------------------- Shape data ------------------
# pwtot      = 0.0300000 (total pw, s)
# power      = 33 (power level, dB)
# pwrf       = 4095 (fine power)
# B1max      = 1.3907 (B1max, kHz)
# B1rms      = 0.8225 (B1[RMS], kHz)
# nptot      = 3000 (total number of steps)
# stepsize   = 10.00 (length of a single step, us)
# maxamp     = 989.1 (max amplitude)
# ------------------------------------------------- 
#      phase      amplitude   length     gate 
# ------------------------------------------------- 
        0.00      1023.00      0.0        0
       0.000        0.000      1.0        0
     346.338        0.000      1.0        0
      43.755        0.000      1.0        0
     101.172        0.000      1.0        0
     158.589        0.000      1.0        0
     216.006        0.000      1.0        0
     273.424        0.000      1.0        0
     330.841        0.000      1.0        0
      28.258        0.000      1.0        0
      85.675        0.000      1.0        0
     143.092        0.000      1.0        0
     200.510        0.000      1.0        0
     257.927        0.000      1.0        0
     315.344        0.000      1.0        0
      12.761        0.000      1.0        0
      70.178        0.000      1.0        0
     127.595        0.000      1.0        0
     185.013        0.000      1.0        0
     242.430        0.000      1.0        0
     299.847        0.000      1.0        0
     357.264        0.000      1.0        0
      54.681        0.000      1.0        0
     112.099        0.000      1.0        1
     169.516        0.000      1.0        1
     226.933        0.000      1.0        1
     284.350        0.000      1.0        1
     341.767        0.000      1.0        1
      39.184        0.000      1.0        1
      96.602        0.000      1.0        1
     154.019        0.000      1.0        1
     211.436        0.000      1.0        1
     268.853        0.043      1.0        1
     326.270        0.111      1.0        1
      23.687        0.182      1.0        1
      81.105        0.254      1.0        1
     138.522        0.329      1.0        1
     195.939        0.406      1.0        1
     253.356        0.485      1.0        1
     310.773        0.567      1.0        1
       8.191        0.650      1.0        1
      65.608        0.736      1.0        1
     123.025        0.823      1.0        1
     180.442        0.913      1.0        1
     237.859        1.006      1.0        1
     295.276        1.100      1.0        1
     352.694        1.196      1.0        1
      50.111        1.295      1.0        1
     107.528        1.396      1.0        1
     164.945        1.499      1.0        1
     222.362        1.604      1.0        1
     279.779        1.711      1.0        1
     337.197        1.820      1.0        1
      34.614        1.932      1.0        1
      92.031        2.046      1.0        1
     149.448        2.162      1.0        1
     206.865        2.280      1.0        1
     264.282        2.400      1.0        1
     321.700        2.522      1.0        1
      19.117        2.647      1.0        1
      76.534        2.774      1.0        1
     133.951        2.902      1.0        1
     191.368        3.033      1.0        1
     248.785        3.166      1.0        1
     306.203        3.302      1.0        1
       3.620        3.439      1.0        1
      61.037        3.579      1.0        1
     118.454        3.721      1.0        1
     175.871        3.864      1.0        1
     233.288        4.011      1.0        1
     290.706        4.159      1.0        1
     348.123        4.309      1.0        1
      45.540        4.462      1.0        1
     102.957        4.616      1.0        1
     160.374        4.773      1.0        1
     217.791        4.932      1.0        1
     275.208        5.093      1.0        1
     332.625        5.256      1.0        1
      30.043        5.422      1.0        1
      87.460        5.589      1.0        1
     144.877        5.759      1.0        1
     202.294        5.930      1.0        1
     259.711        6.104      1.0        1
     317.128        6.280      1.0        1
      14.545        6.459      1.0        1
      71.962        6.639      1.0        1
     129.379        6.821      1.0        1
     186.796        7.006      1.0        1
     244.213        7.193      1.0        1
     301.630        7.382      1.0        1
     359.047        7.573      1.0        1
      56.465        7.766      1.0        1
     113.882        7.961      1.0        1
     171.299        8.159      1.0        1
     228.716        8.358      1.0        1
     286.133        8.560      1.0        1
     343.550        8.764      1.0        1
      40.967        8.970      1.0        1
      98.384        9.178      1.0        1
     155.801        9.388      1.0        1
     213.217        9.600      1.0        1
     270.634        9.815      1.0        1
     328.051       10.031      1.0        1
      25.468       10.250      1.0        1
      82.885       10.471      1.0        1
     140.302       10.694      1.0        1
     197.719       10.919      1.0        1
     255.136       11.146      1.0        1
     312.553       11.375      1.0        1
       9.969       11.606      1.0        1
      67.386       11.840      1.0        1
     124.803       12.076      1.0        1
     182.220       12.313      1.0        1
     239.637       12.553      1.0        1
     297.053       12.795      1.0        1
     354.470       13.039      1.0        1
      51.887       13.285      1.0        1
     109.303       13.534      1.0        1
     166.720       13.784      1.0        1
     224.137       14.037      1.0        1
     281.553       14.291      1.0        1
     338.970       14.548      1.0        1
      36.386       14.807      1.0        1
      93.803       15.068      1.0        1
     151.220       15.331      1.0        1
     208.636       15.596      1.0        1
     266.052       15.863      1.0        1
     323.469       16.132      1.0        1
      20.885       16.404      1.0        1
      78.302       16.677      1.0        1
     135.718       16.953      1.0        1
     193.134       17.231      1.0        1
     250.550       17.510      1.0        1
     307.967       17.792      1.0        1
       5.383       18.076      1.0        1
      62.799       18.362      1.0        1
     120.215       18.650      1.0        1
     177.631       18.941      1.0        1
     235.047       19.233      1.0        1
     292.463       19.527      1.0        1
     349.879       19.824      1.0        1
      47.295       20.122      1.0        1
     104.711       20.423      1.0        1
     162.127       20.725      1.0        1
     219.542       21.030      1.0        1
     276.958       21.337      1.0        1
     334.374       21.646      1.0        1
      31.789       21.957      1.0        1
      89.205       22.270      1.0        1
     146.620       22.585      1.0        1
     204.036       22.902      1.0        1
     261.451       23.222      1.0        1
     318.866       23.543      1.0        1
      16.282       23.866      1.0        1
      73.697       24.192      1.0        1
     131.112       24.519      1.0        1
     188.527       24.849      1.0        1
     245.942       25.181      1.0        1
     303.357       25.514      1.0        1
       0.772       25.850      1.0        1
      58.186       26.188      1.0        1
     115.601       26.528      1.0        1
     173.016       26.869      1.0        1
     230.430       27.213      1.0        1
     287.845       27.559      1.0        1
     345.259       27.907      1.0        1
      42.673       28.257      1.0        1
     100.087       28.610      1.0        1
     157.502       28.964      1.0        1
     214.916       29.320      1.0        1
     272.329       29.678      1.0        1
     329.743       30.038      1.0        1
      27.157       30.401      1.0        1
      84.570       30.765      1.0        1
     141.984       31.132      1.0        1
     199.397       31.500      1.0        1
     256.811       31.870      1.0        1
     314.224       32.243      1.0        1
      11.637       32.617      1.0        1
      69.050       32.994      1.0        1
     126.463       33.372      1.0        1
     183.875       33.753      1.0        1
     241.288       34.135      1.0        1
     298.700       34.520      1.0        1
     356.112       34.907      1.0        1
      53.525       35.295      1.0        1
     110.937       35.686      1.0        1
     168.348       36.078      1.0        1
     225.760       36.473      1.0        1
     283.172       36.870      1.0        1
     340.583       37.268      1.0        1
      37.995       37.669      1.0        1
      95.406       38.072      1.0        1
     152.817       38.476      1.0        1
     210.227       38.883      1.0        1
     267.638       39.292      1.0        1
     325.048       39.702      1.0        1
      22.459       40.115      1.0        1
      79.869       40.530      1.0        1
     137.279       40.946      1.0        1
     194.689       41.365      1.0        1
     252.098       41.785      1.0        1
     309.508       42.208      1.0        1
       6.917       42.632      1.0        1
      64.326       43.059      1.0        1
     121.734       43.487      1.0        1
     179.143       43.918      1.0        1
     236.551       44.350      1.0        1
     293.960       44.785      1.0        1
     351.368       45.221      1.0        1
      48.775       45.660      1.0        1
     106.183       46.100      1.0        1
     163.590       46.542      1.0        1
     220.997       46.986      1.0        1
     278.404       47.433      1.0        1
     335.810       47.881      1.0        1
      33.217       48.331      1.0        1
      90.623       48.783      1.0        1
     148.028       49.237      1.0        1
     205.434       49.693      1.0        1
     262.839       50.151      1.0        1
     320.244       50.611      1.0        1
      17.649       51.073      1.0        1
      75.053       51.536      1.0        1
     132.457       52.002      1.0        1
     189.861       52.470      1.0        1
     247.265       52.939      1.0        1
     304.668       53.411      1.0        1
       2.071       53.884      1.0        1
      59.473       54.360      1.0        1
     116.876       54.837      1.0        1
     174.277       55.316      1.0        1
     231.679       55.797      1.0        1
     289.080       56.281      1.0        1
     346.481       56.766      1.0        1
      43.882       57.252      1.0        1
     101.282       57.741      1.0        1
     158.682       58.232      1.0        1
     216.082       58.725      1.0        1
     273.481       59.219      1.0        1
     330.879       59.716      1.0        1
      28.278       60.214      1.0        1
      85.676       60.714      1.0        1
     143.073       61.217      1.0        1
     200.471       61.721      1.0        1
     257.867       62.227      1.0        1
     315.264       62.734      1.0        1
      12.660       63.244      1.0        1
      70.055       63.756      1.0        1
     127.450       64.269      1.0        1
     184.845       64.785      1.0        1
     242.239       65.302      1.0        1
     299.633       65.821      1.0        1
     357.026       66.342      1.0        1
      54.419       66.865      1.0        1
     111.811       67.390      1.0        1
     169.203       67.917      1.0        1
     226.594       68.445      1.0        1
     283.985       68.976      1.0        1
     341.375       69.508      1.0        1
      38.765       70.042      1.0        1
      96.154       70.578      1.0        1
     153.543       71.116      1.0        1
     210.931       71.656      1.0        1
     268.319       72.197      1.0        1
     325.706       72.741      1.0        1
      23.092       73.286      1.0        1
      80.478       73.833      1.0        1
     137.863       74.382      1.0        1
     195.248       74.933      1.0        1
     252.632       75.485      1.0        1
     310.016       76.040      1.0        1
       7.399       76.596      1.0        1
      64.781       77.154      1.0        1
     122.163       77.714      1.0        1
     179.544       78.276      1.0        1
     236.924       78.839      1.0        1
     294.304       79.405      1.0        1
     351.683       79.972      1.0        1
      49.061       80.541      1.0        1
     106.438       81.112      1.0        1
     163.815       81.685      1.0        1
     221.192       82.259      1.0        1
     278.567       82.835      1.0        1
     335.942       83.413      1.0        1
      33.316       83.993      1.0        1
      90.689       84.575      1.0        1
     148.061       85.158      1.0        1
     205.433       85.744      1.0        1
     262.804       86.331      1.0        1
     320.174       86.920      1.0        1
      17.544       87.510      1.0        1
      74.912       88.103      1.0        1
     132.280       88.697      1.0        1
     189.647       89.293      1.0        1
     247.013       89.890      1.0        1
     304.378       90.490      1.0        1
       1.742       91.091      1.0        1
      59.105       91.694      1.0        1
     116.468       92.299      1.0        1
     173.829       92.906      1.0        1
     231.190       93.514      1.0        1
     288.550       94.124      1.0        1
     345.908       94.736      1.0        1
      43.266       95.350      1.0        1
     100.623       95.965      1.0        1
     157.979       96.582      1.0        1
     215.334       97.201      1.0        1
     272.688       97.821      1.0        1
     330.040       98.444      1.0        1
      27.392       99.068      1.0        1
      84.743       99.694      1.0        1
     142.093      100.321      1.0        1
     199.441      100.950      1.0        1
     256.789      101.581      1.0        1
     314.135      102.214      1.0        1
      11.481      102.848      1.0        1
      68.825      103.484      1.0        1
     126.168      104.122      1.0        1
     183.510      104.762      1.0        1
     240.850      105.403      1.0        1
     298.190      106.046      1.0        1
     355.528      106.691      1.0        1
      52.866      107.337      1.0        1
     110.201      107.985      1.0        1
     167.536      108.635      1.0        1
     224.870      109.286      1.0        1
     282.202      109.939      1.0        1
     339.533      110.594      1.0        1
      36.862      111.250      1.0        1
      94.190      111.909      1.0        1
     151.517      112.568      1.0        1
     208.843      113.230      1.0        1
     266.167      113.893      1.0        1
     323.490      114.558      1.0        1
      20.812      115.224      1.0        1
      78.132      115.892      1.0        1
     135.450      116.562      1.0        1
     192.767      117.234      1.0        1
     250.083      117.907      1.0        1
     307.397      118.582      1.0        1
       4.710      119.258      1.0        1
      62.021      119.936      1.0        1
     119.331      120.616      1.0        1
     176.639      121.297      1.0        1
     233.946      121.980      1.0        1
     291.251      122.665      1.0        1
     348.554      123.351      1.0        1
      45.856      124.039      1.0        1
     103.156      124.728      1.0        1
     160.455      125.419      1.0        1
     217.752      126.112      1.0        1
     275.047      126.806      1.0        1
     332.340      127.502      1.0        1
      29.632      128.200      1.0        1
      86.922      128.899      1.0        1
     144.210      129.600      1.0        1
     201.497      130.302      1.0        1
     258.782      131.006      1.0        1
     316.064      131.711      1.0        1
      13.345      132.419      1.0        1
      70.625      133.127      1.0        1
     127.902      133.838      1.0        1
     185.177      134.549      1.0        1
     242.451      135.263      1.0        1
     299.722      135.978      1.0        1
     356.992      136.694      1.0        1
      54.259      137.413      1.0        1
     111.525      138.132      1.0        1
     168.789      138.853      1.0        1
     226.050      139.576      1.0        1
     283.310      140.301      1.0        1
     340.567      141.027      1.0        1
      37.822      141.754      1.0        1
      95.075      142.483      1.0        1
     152.326      143.214      1.0        1
     209.575      143.946      1.0        1
     266.822      144.679      1.0        1
     324.066      145.415      1.0        1
      21.309      146.151      1.0        1
      78.548      146.889      1.0        1
     135.786      147.629      1.0        1
     193.021      148.370      1.0        1
     250.254      149.113      1.0        1
     307.485      149.858      1.0        1
       4.713      150.603      1.0        1
      61.939      151.351      1.0        1
     119.163      152.099      1.0        1
     176.384      152.850      1.0        1
     233.602      153.601      1.0        1
     290.818      154.355      1.0        1
     348.032      155.110      1.0        1
      45.243      155.866      1.0        1
     102.451      156.624      1.0        1
     159.657      157.383      1.0        1
     216.860      158.143      1.0        1
     274.061      158.906      1.0        1
     331.259      159.669      1.0        1
      28.454      160.434      1.0        1
      85.647      161.201      1.0        1
     142.836      161.969      1.0        1
     200.023      162.738      1.0        1
     257.207      163.509      1.0        1
     314.389      164.282      1.0        1
      11.567      165.056      1.0        1
      68.743      165.831      1.0        1
     125.916      166.608      1.0        1
     183.085      167.386      1.0        1
     240.252      168.165      1.0        1
     297.416      168.946      1.0        1
     354.577      169.729      1.0        1
      51.735      170.513      1.0        1
     108.889      171.298      1.0        1
     166.041      172.085      1.0        1
